Wavelength (nm)	Power (dBm)
1.525E-6	-75.9176
1.525045E-6	-76.017127
1.52509E-6	-76.394066
1.525135E-6	-77.552282
1.52518E-6	-81.185583
1.525225E-6	-85.912514
1.52527E-6	-120
1.525315E-6	-90.698664
1.52536E-6	-93.293831
1.525405E-6	-91.829638
1.52545E-6	-120
1.525495E-6	-82.395775
1.52554E-6	-77.011469
1.525585E-6	-75.31505
1.52563E-6	-74.8096
1.525675E-6	-74.415314
1.52572E-6	-74.616777
1.525765E-6	-74.325031
1.52581E-6	-73.841551
1.525855E-6	-74.165745
1.5259E-6	-75.968795
1.525945E-6	-79.150664
1.52599E-6	-85.347659
1.526035E-6	-94.535807
1.52608E-6	-120
1.526125E-6	-94.843911
1.52617E-6	-92.132486
1.526215E-6	-91.131146
1.52626E-6	-82.395775
1.526305E-6	-76.088884
1.52635E-6	-73.91367
1.526395E-6	-73.382819
1.52644E-6	-73.005959
1.526485E-6	-72.90052
1.52653E-6	-72.78107
1.526575E-6	-72.657604
1.52662E-6	-72.910695
1.526665E-6	-73.936186
1.52671E-6	-76.865546
1.526755E-6	-81.627273
1.5268E-6	-86.940041
1.526845E-6	-120
1.52689E-6	-88.091083
1.526935E-6	-91.982534
1.52698E-6	-89.427144
1.527025E-6	-83.066248
1.52707E-6	-75.476002
1.527115E-6	-73.504704
1.52716E-6	-72.008663
1.527205E-6	-71.876884
1.52725E-6	-71.802587
1.527295E-6	-71.687063
1.52734E-6	-71.713401
1.527385E-6	-71.703746
1.52743E-6	-72.57825
1.527475E-6	-75.202808
1.52752E-6	-79.738755
1.527565E-6	-85.215778
1.52761E-6	-92.774483
1.527655E-6	-87.535014
1.5277E-6	-94.17255
1.527745E-6	-89.351678
1.52779E-6	-84.211317
1.527835E-6	-76.857113
1.52788E-6	-72.624893
1.527925E-6	-71.307683
1.52797E-6	-71.007816
1.528015E-6	-70.875122
1.52806E-6	-70.758758
1.528105E-6	-70.741209
1.52815E-6	-70.790944
1.528195E-6	-71.243601
1.52824E-6	-73.181259
1.528285E-6	-77.710866
1.52833E-6	-82.829956
1.528375E-6	-90.24063
1.52842E-6	-89.641702
1.528465E-6	-120
1.52851E-6	-90.197693
1.528555E-6	-90.959339
1.5286E-6	-78.326827
1.528645E-6	-72.911544
1.52869E-6	-70.900163
1.528735E-6	-70.27057
1.52878E-6	-70.161483
1.528825E-6	-70.012177
1.52887E-6	-70.032257
1.528915E-6	-70.052431
1.52896E-6	-70.330608
1.529005E-6	-71.676827
1.52905E-6	-75.117314
1.529095E-6	-79.661743
1.52914E-6	-86.057235
1.529185E-6	-89.370422
1.52923E-6	-87.061956
1.529275E-6	-90.417707
1.52932E-6	-90.432555
1.529365E-6	-80.222764
1.52941E-6	-73.275327
1.529455E-6	-70.742755
1.5295E-6	-69.812995
1.529545E-6	-69.613798
1.52959E-6	-69.550685
1.529635E-6	-69.566377
1.52968E-6	-69.457701
1.529725E-6	-69.685915
1.52977E-6	-70.533513
1.529815E-6	-73.357342
1.52986E-6	-77.964232
1.529905E-6	-83.929741
1.52995E-6	-86.8867
1.529995E-6	-92.20981
1.53004E-6	-91.819722
1.530085E-6	-94.971634
1.53013E-6	-82.36123
1.530175E-6	-75.003129
1.53022E-6	-71.047985
1.530265E-6	-69.629721
1.53031E-6	-69.292235
1.530355E-6	-69.197344
1.5304E-6	-69.147094
1.530445E-6	-69.118639
1.53049E-6	-69.193735
1.530535E-6	-69.804683
1.53058E-6	-71.693472
1.530625E-6	-75.795491
1.53067E-6	-80.787819
1.530715E-6	-85.887171
1.53076E-6	-90.095723
1.530805E-6	-120
1.53085E-6	-89.423339
1.530895E-6	-89.08333
1.53094E-6	-76.22876
1.530985E-6	-71.749636
1.53103E-6	-69.779843
1.531075E-6	-69.211808
1.53112E-6	-69.023957
1.531165E-6	-68.955129
1.53121E-6	-68.87395
1.531255E-6	-68.941493
1.5313E-6	-69.219058
1.531345E-6	-70.56456
1.53139E-6	-74.118404
1.531435E-6	-78.554258
1.53148E-6	-84.67373
1.531525E-6	-120
1.53157E-6	-89.952488
1.531615E-6	-88.218867
1.53166E-6	-102.625688
1.531705E-6	-80.678308
1.53175E-6	-73.243133
1.531795E-6	-70.225508
1.53184E-6	-69.270153
1.531885E-6	-69.037854
1.53193E-6	-69.041335
1.531975E-6	-69.072794
1.53202E-6	-69.069287
1.532065E-6	-69.115095
1.53211E-6	-69.858997
1.532155E-6	-72.394267
1.5322E-6	-76.744843
1.532245E-6	-82.474906
1.53229E-6	-91.936165
1.532335E-6	-120
1.53238E-6	-87.207895
1.532425E-6	-90.649464
1.53247E-6	-85.890541
1.532515E-6	-75.374523
1.53256E-6	-71.187866
1.532605E-6	-69.685915
1.53265E-6	-69.226321
1.532695E-6	-69.186527
1.53274E-6	-69.150664
1.532785E-6	-69.175737
1.53283E-6	-69.277501
1.532875E-6	-69.665762
1.53292E-6	-71.433919
1.532965E-6	-75.469876
1.53301E-6	-80.056828
1.533055E-6	-85.100415
1.5331E-6	-89.905491
1.533145E-6	-92.265061
1.53319E-6	-88.863908
1.533235E-6	-89.492337
1.53328E-6	-78.880657
1.533325E-6	-72.809174
1.53337E-6	-70.561594
1.533415E-6	-69.718356
1.53346E-6	-69.590023
1.533505E-6	-69.50782
1.53355E-6	-69.669786
1.533595E-6	-69.726504
1.53364E-6	-69.991323
1.533685E-6	-71.021531
1.53373E-6	-73.683533
1.533775E-6	-78.867253
1.53382E-6	-82.968807
1.533865E-6	-90.245682
1.53391E-6	-93.428485
1.533955E-6	-94.409317
1.534E-6	-90.000869
1.534045E-6	-84.74178
1.53409E-6	-75.519123
1.534135E-6	-71.771784
1.53418E-6	-70.611302
1.534225E-6	-70.332483
1.53427E-6	-70.234208
1.534315E-6	-70.36779
1.53436E-6	-70.32452
1.534405E-6	-70.431595
1.53445E-6	-71.106983
1.534495E-6	-72.913242
1.53454E-6	-77.101882
1.534585E-6	-82.213424
1.53463E-6	-92.980005
1.534675E-6	-90.871936
1.53472E-6	-96.283781
1.534765E-6	-96.441655
1.53481E-6	-87.607005
1.534855E-6	-79.578184
1.5349E-6	-73.871102
1.534945E-6	-71.633595
1.53499E-6	-71.003436
1.535035E-6	-70.909791
1.53508E-6	-71.07071
1.535125E-6	-71.043013
1.53517E-6	-71.034738
1.535215E-6	-71.202162
1.53526E-6	-72.55707
1.535305E-6	-75.382014
1.53535E-6	-80.557148
1.535395E-6	-85.495969
1.53544E-6	-120
1.535485E-6	-120
1.53553E-6	-88.288588
1.535575E-6	-90.925886
1.53562E-6	-83.216638
1.535665E-6	-76.53647
1.53571E-6	-73.198459
1.535755E-6	-71.730834
1.5358E-6	-71.627273
1.535845E-6	-71.526742
1.53589E-6	-71.825669
1.535935E-6	-71.7276
1.53598E-6	-71.811805
1.536025E-6	-71.726307
1.53607E-6	-74.468455
1.536115E-6	-78.563608
1.53616E-6	-82.914941
1.536205E-6	-87.425614
1.53625E-6	-91.77309
1.536295E-6	-91.878222
1.53634E-6	-92.186037
1.536385E-6	-90.067402
1.53643E-6	-80.454681
1.536475E-6	-74.787311
1.53652E-6	-72.957637
1.536565E-6	-72.238075
1.53661E-6	-72.156681
1.536655E-6	-72.108425
1.5367E-6	-72.431358
1.536745E-6	-72.162393
1.53679E-6	-72.569608
1.536835E-6	-73.437101
1.53688E-6	-76.744843
1.536925E-6	-80.277509
1.53697E-6	-88.655041
1.537015E-6	-99.538952
1.53706E-6	-93.121145
1.537105E-6	-89.093893
1.53715E-6	-97.444863
1.537195E-6	-83.274404
1.53724E-6	-78.190144
1.537285E-6	-74.060497
1.53733E-6	-72.870138
1.537375E-6	-72.457281
1.53742E-6	-72.475674
1.537465E-6	-72.556288
1.53751E-6	-72.433639
1.537555E-6	-72.588484
1.5376E-6	-73.25874
1.537645E-6	-75.181276
1.53769E-6	-79.288547
1.537735E-6	-84.945787
1.53778E-6	-120
1.537825E-6	-90.558629
1.53787E-6	-120
1.537915E-6	-91.100823
1.53796E-6	-89.888526
1.538005E-6	-82.166682
1.53805E-6	-75.751184
1.538095E-6	-73.437101
1.53814E-6	-72.844144
1.538185E-6	-72.733543
1.53823E-6	-72.914941
1.538275E-6	-72.933675
1.53832E-6	-72.743333
1.538365E-6	-73.072412
1.53841E-6	-73.643152
1.538455E-6	-77.002748
1.5385E-6	-80.428718
1.538545E-6	-86.017127
1.53859E-6	-88.091083
1.538635E-6	-120
1.53868E-6	-91.470932
1.538725E-6	-85.900669
1.53877E-6	-85.164127
1.538815E-6	-78.677403
1.53886E-6	-74.161214
1.538905E-6	-73.088301
1.53895E-6	-72.705112
1.538995E-6	-72.597953
1.53904E-6	-72.641617
1.539085E-6	-72.670436
1.53913E-6	-72.627278
1.539175E-6	-73.098926
1.53922E-6	-74.921441
1.539265E-6	-78.948306
1.53931E-6	-84.323856
1.539355E-6	-88.201611
1.5394E-6	-120
1.539445E-6	-88.968807
1.53949E-6	-88.377344
1.539535E-6	-90.51196
1.53958E-6	-83.255982
1.539625E-6	-75.720273
1.53967E-6	-73.41607
1.539715E-6	-72.66883
1.53976E-6	-72.590061
1.539805E-6	-72.376216
1.53985E-6	-72.429838
1.539895E-6	-72.48413
1.53994E-6	-72.664015
1.539985E-6	-73.650192
1.54003E-6	-75.955084
1.540075E-6	-80.403386
1.54012E-6	-87.469044
1.540165E-6	-93.018124
1.54021E-6	-120
1.540255E-6	-120
1.5403E-6	-89.995659
1.540345E-6	-86.755118
1.54039E-6	-78.938091
1.540435E-6	-74.310946
1.54048E-6	-72.562551
1.540525E-6	-72.277517
1.54057E-6	-72.172408
1.540615E-6	-72.281187
1.54066E-6	-72.088008
1.540705E-6	-72.307704
1.54075E-6	-72.594794
1.540795E-6	-74.086014
1.54084E-6	-77.915586
1.540885E-6	-82.993828
1.54093E-6	-85.635193
1.540975E-6	-90.101943
1.54102E-6	-120
1.541065E-6	-91.45937
1.54111E-6	-89.423339
1.541155E-6	-81.985963
1.5412E-6	-75.687971
1.541245E-6	-73.140792
1.54129E-6	-72.143143
1.541335E-6	-72.010043
1.54138E-6	-72.024555
1.541425E-6	-71.856192
1.54147E-6	-71.86419
1.541515E-6	-71.890957
1.54156E-6	-72.770372
1.541605E-6	-75.122961
1.54165E-6	-79.625735
1.541695E-6	-84.148778
1.54174E-6	-92.855026
1.541785E-6	-88.410347
1.54183E-6	-120
1.541875E-6	-89.488475
1.54192E-6	-87.602002
1.541965E-6	-79.578184
1.54201E-6	-74.414114
1.542055E-6	-72.355997
1.5421E-6	-71.853529
1.542145E-6	-71.650074
1.54219E-6	-71.841567
1.542235E-6	-71.687703
1.54228E-6	-71.707606
1.542325E-6	-71.975684
1.54237E-6	-73.178549
1.542415E-6	-76.280091
1.54246E-6	-80.708877
1.542505E-6	-86.027554
1.54255E-6	-88.395315
1.542595E-6	-120
1.54264E-6	-88.544928
1.542685E-6	-90.363538
1.54273E-6	-84.89455
1.542775E-6	-76.276404
1.54282E-6	-73.137213
1.542865E-6	-71.856192
1.54291E-6	-71.504577
1.542955E-6	-71.493538
1.543E-6	-71.600822
1.543045E-6	-71.401415
1.54309E-6	-71.563313
1.543135E-6	-72.172408
1.54318E-6	-73.571399
1.543225E-6	-77.396901
1.54327E-6	-83.190303
1.543315E-6	-87.461776
1.54336E-6	-90.466269
1.543405E-6	-88.626459
1.54345E-6	-94.607984
1.543495E-6	-85.162701
1.54354E-6	-80.935572
1.543585E-6	-75.001755
1.54363E-6	-72.419212
1.543675E-6	-71.77505
1.54372E-6	-71.433919
1.543765E-6	-71.455725
1.54381E-6	-71.340082
1.543855E-6	-71.340673
1.5439E-6	-71.501508
1.543945E-6	-72.367218
1.54399E-6	-74.575481
1.544035E-6	-79.574245
1.54408E-6	-84.779472
1.544125E-6	-85.16698
1.54417E-6	-90.89429
1.544215E-6	-95.777385
1.54426E-6	-100.511471
1.544305E-6	-86.343249
1.54435E-6	-79.450041
1.544395E-6	-73.48722
1.54444E-6	-71.907771
1.544485E-6	-71.513183
1.54453E-6	-71.32238
1.544575E-6	-71.259823
1.54462E-6	-71.199299
1.544665E-6	-71.346591
1.54471E-6	-71.431503
1.544755E-6	-72.819137
1.5448E-6	-75.58462
1.544845E-6	-80.03007
1.54489E-6	-85.032087
1.544935E-6	-86.058987
1.54498E-6	-87.166988
1.545025E-6	-80.456127
1.54507E-6	-71.828976
1.545115E-6	-58.563608
1.54516E-6	-44.03953
1.545205E-6	-38.771291
1.54525E-6	-36.708056
1.545295E-6	-36.239708
1.54534E-6	-36.151092
1.545385E-6	-36.117211
1.54543E-6	-36.151092
1.545475E-6	-36.5738
1.54552E-6	-38.667805
1.545565E-6	-43.792395
1.54561E-6	-53.347005
1.545655E-6	-62.146702
1.5457E-6	-69.362914
1.545745E-6	-76.36388
1.54579E-6	-80.113519
1.545835E-6	-83.418932
1.54588E-6	-120
1.545925E-6	-80.950682
1.54597E-6	-74.170281
1.546015E-6	-72.266525
1.54606E-6	-71.294205
1.546105E-6	-71.223983
1.54615E-6	-71.080168
1.546195E-6	-71.055178
1.54624E-6	-71.125515
1.546285E-6	-71.268538
1.54633E-6	-71.99833
1.546375E-6	-74.090468
1.54642E-6	-79.329291
1.546465E-6	-83.533023
1.54651E-6	-92.443538
1.546555E-6	-87.547342
1.5466E-6	-92.636035
1.546645E-6	-120
1.54669E-6	-86.294869
1.546735E-6	-79.164974
1.54678E-6	-73.912601
1.546825E-6	-71.885591
1.54687E-6	-71.157712
1.546915E-6	-71.195294
1.54696E-6	-71.221681
1.547005E-6	-71.149782
1.54705E-6	-71.122702
1.547095E-6	-71.327093
1.54714E-6	-72.378468
1.547185E-6	-75.404567
1.54723E-6	-79.601894
1.547275E-6	-84.347427
1.54732E-6	-90.290026
1.547365E-6	-91.027029
1.54741E-6	-109.277501
1.547455E-6	-89.685915
1.5475E-6	-84.701848
1.547545E-6	-78.007935
1.54759E-6	-73.066248
1.547635E-6	-71.499667
1.54768E-6	-71.165089
1.547725E-6	-71.121015
1.54777E-6	-70.960423
1.547815E-6	-71.270284
1.54786E-6	-71.173616
1.547905E-6	-71.499054
1.54795E-6	-72.922595
1.547995E-6	-76.167233
1.54804E-6	-81.514414
1.548085E-6	-88.23041
1.54813E-6	-120
1.548175E-6	-90.741209
1.54822E-6	-88.999743
1.548265E-6	-92.601904
1.54831E-6	-83.305901
1.548355E-6	-75.578339
1.5484E-6	-72.53833
1.548445E-6	-71.346591
1.54849E-6	-71.067377
1.548535E-6	-71.061273
1.54858E-6	-71.273776
1.548625E-6	-71.106983
1.54867E-6	-71.158846
1.548715E-6	-71.767867
1.54876E-6	-73.400838
1.548805E-6	-77.413627
1.54885E-6	-82.135325
1.548895E-6	-89.718356
1.54894E-6	-89.453869
1.548985E-6	-98.579235
1.54903E-6	-91.772437
1.549075E-6	-87.85421
1.54912E-6	-81.778973
1.549165E-6	-74.543219
1.54921E-6	-72.252641
1.549255E-6	-71.325914
1.5493E-6	-71.101383
1.549345E-6	-71.133401
1.54939E-6	-70.98106
1.549435E-6	-71.071822
1.54948E-6	-71.166793
1.549525E-6	-71.705676
1.54957E-6	-74.197595
1.549615E-6	-78.938091
1.54966E-6	-82.279718
1.549705E-6	-85.313573
1.54975E-6	-88.452718
1.549795E-6	-82.814153
1.54984E-6	-75.448505
1.549885E-6	-66.34512
1.54993E-6	-50.696114
1.549975E-6	-40.794071
1.55002E-6	-37.276942
1.550065E-6	-36.143937
1.55011E-6	-35.961934
1.550155E-6	-35.929492
1.5502E-6	-35.927791
1.550245E-6	-35.961934
1.55029E-6	-36.78816
1.550335E-6	-39.825493
1.55038E-6	-46.944337
1.550425E-6	-57.78325
1.55047E-6	-65.427238
1.550515E-6	-71.942274
1.55056E-6	-78.213108
1.550605E-6	-81.874877
1.55065E-6	-84.292236
1.550695E-6	-84.148778
1.55074E-6	-78.443604
1.550785E-6	-73.327339
1.55083E-6	-71.561446
1.550875E-6	-71.122702
1.55092E-6	-70.94474
1.550965E-6	-70.899629
1.55101E-6	-70.964217
1.551055E-6	-70.874591
1.5511E-6	-71.153745
1.551145E-6	-72.443538
1.55119E-6	-74.985299
1.551235E-6	-79.574245
1.55128E-6	-85.751184
1.551325E-6	-86.957249
1.55137E-6	-94.130753
1.551415E-6	-120
1.55146E-6	-88.167302
1.551505E-6	-85.353614
1.55155E-6	-76.485902
1.551595E-6	-72.840802
1.55164E-6	-71.243022
1.551685E-6	-70.818123
1.55173E-6	-70.857627
1.551775E-6	-70.80399
1.55182E-6	-70.816551
1.551865E-6	-70.826521
1.55191E-6	-71.026479
1.551955E-6	-72.536772
1.552E-6	-75.779028
1.552045E-6	-80.716041
1.55209E-6	-88.45576
1.552135E-6	-96.8867
1.55218E-6	-120
1.552225E-6	-94.544455
1.55227E-6	-90.484197
1.552315E-6	-83.552661
1.55236E-6	-75.639965
1.552405E-6	-72.28633
1.55245E-6	-71.005625
1.552495E-6	-70.796158
1.55254E-6	-70.816027
1.552585E-6	-70.758241
1.55263E-6	-70.875654
1.552675E-6	-70.823895
1.55272E-6	-71.287774
1.552765E-6	-72.818306
1.55281E-6	-76.587634
1.552855E-6	-80.977795
1.5529E-6	-87.736579
1.552945E-6	-88.680607
1.55299E-6	-91.507035
1.553035E-6	-96.071273
1.55308E-6	-88.579235
1.553125E-6	-82.525105
1.55317E-6	-74.80172
1.553215E-6	-72.004527
1.55326E-6	-70.87406
1.553305E-6	-70.716554
1.55335E-6	-70.656026
1.553395E-6	-70.628333
1.55344E-6	-70.694075
1.553485E-6	-70.688474
1.55353E-6	-71.234358
1.553575E-6	-72.976556
1.55362E-6	-76.96372
1.553665E-6	-81.614657
1.55371E-6	-89.325572
1.553755E-6	-97.031155
1.5538E-6	-102.249724
1.553845E-6	-94.301581
1.55389E-6	-88.088285
1.553935E-6	-80.818648
1.55398E-6	-74.30392
1.554025E-6	-71.812464
1.55407E-6	-70.810266
1.554115E-6	-70.569014
1.55416E-6	-70.515381
1.554205E-6	-70.535477
1.55425E-6	-70.644927
1.554295E-6	-70.509029
1.55434E-6	-71.245914
1.554385E-6	-73.303113
1.55443E-6	-77.498241
1.554475E-6	-80.785737
1.55452E-6	-92.202592
1.554565E-6	-91.792732
1.55461E-6	-93.229408
1.554655E-6	-88.486301
1.5547E-6	-92.353756
1.554745E-6	-80.194513
1.55479E-6	-73.592205
1.554835E-6	-71.406215
1.55488E-6	-70.577438
1.554925E-6	-70.398623
1.55497E-6	-70.409109
1.555015E-6	-70.330608
1.55506E-6	-70.32031
1.555105E-6	-70.44649
1.55515E-6	-71.210189
1.555195E-6	-73.436143
1.55524E-6	-77.664962
1.555285E-6	-82.624098
1.55533E-6	-86.395959
1.555375E-6	-93.480439
1.55542E-6	-95.041782
1.555465E-6	-89.055289
1.55551E-6	-89.408154
1.555555E-6	-80.999608
1.5556E-6	-73.327339
1.555645E-6	-71.29479
1.55569E-6	-70.580912
1.555735E-6	-70.382942
1.55578E-6	-70.302115
1.555825E-6	-70.394341
1.55587E-6	-70.355518
1.555915E-6	-70.473044
1.55596E-6	-71.225711
1.556005E-6	-73.255982
1.55605E-6	-77.923656
1.556095E-6	-83.91688
1.55614E-6	-96.178028
1.556185E-6	-90.487111
1.55623E-6	-120
1.556275E-6	-89.982663
1.55632E-6	-88.917733
1.556365E-6	-79.722428
1.55641E-6	-73.154239
1.556455E-6	-71.21823
1.5565E-6	-70.469172
1.556545E-6	-70.194058
1.55659E-6	-70.236042
1.556635E-6	-70.149779
1.55668E-6	-70.389588
1.556725E-6	-70.324988
1.55677E-6	-71.18216
1.556815E-6	-73.77786
1.55686E-6	-78.576105
1.556905E-6	-83.941565
1.55695E-6	-89.111554
1.556995E-6	-107.325936
1.55704E-6	-90.953926
1.557085E-6	-90.538426
1.55713E-6	-89.677843
1.557175E-6	-79.310724
1.55722E-6	-73.075938
1.557265E-6	-71.159414
1.55731E-6	-70.389113
1.557355E-6	-70.393865
1.5574E-6	-70.219565
1.557445E-6	-70.270108
1.55749E-6	-70.377254
1.557535E-6	-70.490513
1.55758E-6	-71.263307
1.557625E-6	-73.923306
1.55767E-6	-78.588639
1.557715E-6	-83.78616
1.55776E-6	-91.126641
1.557805E-6	-88.982529
1.55785E-6	-91.20732
1.557895E-6	-120
1.55794E-6	-85.011383
1.557985E-6	-79.065783
1.55803E-6	-73.114912
1.558075E-6	-71.131146
1.55812E-6	-70.56456
1.558165E-6	-70.347042
1.55821E-6	-70.282604
1.558255E-6	-70.266412
1.5583E-6	-70.467237
1.558345E-6	-70.587868
1.55839E-6	-71.465452
1.558435E-6	-74.029633
1.55848E-6	-78.741935
1.558525E-6	-83.598168
1.55857E-6	-87.018021
1.558615E-6	-91.262145
1.55866E-6	-94.336804
1.558705E-6	-88.057633
1.55875E-6	-91.688344
1.558795E-6	-79.118639
1.55884E-6	-73.015515
1.558885E-6	-71.251125
1.55893E-6	-70.556654
1.558975E-6	-70.486625
1.55902E-6	-70.631848
1.559065E-6	-70.530567
1.55911E-6	-70.495378
1.559155E-6	-70.691528
1.5592E-6	-71.459978
1.559245E-6	-74.047243
1.55929E-6	-78.642315
1.559335E-6	-83.015515
1.55938E-6	-88.683813
1.559425E-6	-88.823973
1.55947E-6	-90.883631
1.559515E-6	-89.871628
1.55956E-6	-88.002448
1.559605E-6	-79.574245
1.55965E-6	-73.330143
1.559695E-6	-71.360826
1.55974E-6	-70.734518
1.559785E-6	-70.694075
1.55983E-6	-70.860273
1.559875E-6	-70.621312
1.55992E-6	-70.848641
1.559965E-6	-70.978883
1.56001E-6	-71.696038
1.560055E-6	-74.383025
1.5601E-6	-79.270153
1.560145E-6	-84.111683
1.56019E-6	-88.37137
1.560235E-6	-91.340673
1.56028E-6	-87.710866
1.560325E-6	-94.082678
1.56037E-6	-86.411138
1.560415E-6	-80.355047
1.56046E-6	-73.977229
1.560505E-6	-71.737956
1.56055E-6	-71.02868
1.560595E-6	-71.052963
1.56064E-6	-71.149216
1.560685E-6	-71.099145
1.56073E-6	-71.101942
1.560775E-6	-71.351924
1.56082E-6	-72.068385
1.560865E-6	-74.653394
1.56091E-6	-78.800846
1.560955E-6	-83.321736
1.561E-6	-88.06319
1.561045E-6	-91.184442
1.56109E-6	-90.520764
1.561135E-6	-90.494404
1.56118E-6	-87.804155
1.561225E-6	-80.499761
1.56127E-6	-74.524714
1.561315E-6	-72.158108
1.56136E-6	-71.489864
1.561405E-6	-71.390036
1.56145E-6	-71.455118
1.561495E-6	-71.321202
1.56154E-6	-71.398417
1.561585E-6	-71.553986
1.56163E-6	-72.480284
1.561675E-6	-74.610494
1.56172E-6	-78.847224
1.561765E-6	-85.252012
1.56181E-6	-92.288537
1.561855E-6	-89.041335
1.5619E-6	-120
1.561945E-6	-92.062096
1.56199E-6	-86.625407
1.562035E-6	-81.43936
1.56208E-6	-75.325399
1.562125E-6	-72.778599
1.56217E-6	-72.012803
1.562215E-6	-71.963381
1.56226E-6	-71.934131
1.562305E-6	-71.953836
1.56235E-6	-72.041895
1.562395E-6	-72.095741
1.56244E-6	-72.702684
1.562485E-6	-74.91201
1.56253E-6	-77.988761
1.562575E-6	-83.392294
1.56262E-6	-88.50473
1.562665E-6	-92.469534
1.56271E-6	-88.046539
1.562755E-6	-89.086848
1.5628E-6	-92.725401
1.562845E-6	-83.247717
1.56289E-6	-75.870357
1.562935E-6	-73.364875
1.56298E-6	-72.573534
1.563025E-6	-72.251182
1.56307E-6	-72.320283
1.563115E-6	-72.375465
1.56316E-6	-72.53911
1.563205E-6	-72.518895
1.56325E-6	-73.228495
1.563295E-6	-74.870489
1.56334E-6	-79.041335
1.563385E-6	-83.76234
1.56343E-6	-88.032713
1.563475E-6	-120
1.56352E-6	-90.744301
1.563565E-6	-92.423763
1.56361E-6	-109.593977
1.563655E-6	-84.770344
1.5637E-6	-78.239087
1.563745E-6	-74.364003
