Wavelength (nm)	Power (dBm)
1.525E-6	-47.825161
1.525045E-6	-47.728849
1.52509E-6	-47.637147
1.525135E-6	-47.535014
1.52518E-6	-47.435228
1.525225E-6	-47.33298
1.52527E-6	-47.244583
1.525315E-6	-47.160207
1.52536E-6	-47.075224
1.525405E-6	-46.978856
1.52545E-6	-46.882461
1.525495E-6	-46.790233
1.52554E-6	-46.718243
1.525585E-6	-46.639407
1.52563E-6	-46.558043
1.525675E-6	-46.472388
1.52572E-6	-46.38461
1.525765E-6	-46.311555
1.52581E-6	-46.247023
1.525855E-6	-46.172627
1.5259E-6	-46.092415
1.525945E-6	-46.011923
1.52599E-6	-45.973948
1.526035E-6	-45.914209
1.52608E-6	-45.825283
1.526125E-6	-45.765903
1.52617E-6	-45.699249
1.526215E-6	-45.630427
1.52626E-6	-45.553308
1.526305E-6	-45.477534
1.52635E-6	-45.437858
1.526395E-6	-45.377518
1.52644E-6	-45.30178
1.526485E-6	-45.241836
1.52653E-6	-45.189876
1.526575E-6	-45.147046
1.52662E-6	-45.101821
1.526665E-6	-45.034855
1.52671E-6	-44.992148
1.526755E-6	-44.945787
1.5268E-6	-44.895891
1.526845E-6	-44.858509
1.52689E-6	-44.805658
1.526935E-6	-44.74696
1.52698E-6	-44.709548
1.527025E-6	-44.671183
1.52707E-6	-44.626847
1.527115E-6	-44.558079
1.52716E-6	-44.518564
1.527205E-6	-44.46724
1.52725E-6	-44.455108
1.527295E-6	-44.404524
1.52734E-6	-44.373503
1.527385E-6	-44.335625
1.52743E-6	-44.306261
1.527475E-6	-44.29107
1.52752E-6	-44.273607
1.527565E-6	-44.260846
1.52761E-6	-44.212462
1.527655E-6	-44.210172
1.5277E-6	-44.127382
1.527745E-6	-44.113922
1.52779E-6	-44.111683
1.527835E-6	-44.089354
1.52788E-6	-44.020855
1.527925E-6	-43.998987
1.52797E-6	-43.951262
1.528015E-6	-43.968556
1.52806E-6	-43.929741
1.528105E-6	-43.91795
1.52815E-6	-43.887016
1.528195E-6	-43.887016
1.52824E-6	-43.864753
1.528285E-6	-43.881705
1.52833E-6	-43.861582
1.528375E-6	-43.858413
1.52842E-6	-43.831046
1.528465E-6	-43.797598
1.52851E-6	-43.802807
1.528555E-6	-43.800723
1.5286E-6	-43.761307
1.528645E-6	-43.740705
1.52869E-6	-43.699791
1.528735E-6	-43.690639
1.52878E-6	-43.687592
1.528825E-6	-43.705904
1.52887E-6	-43.667336
1.528915E-6	-43.658251
1.52896E-6	-43.645163
1.529005E-6	-43.650192
1.52905E-6	-43.685562
1.529095E-6	-43.668346
1.52914E-6	-43.653212
1.529185E-6	-43.642148
1.52923E-6	-43.649186
1.529275E-6	-43.657243
1.52932E-6	-43.647174
1.529365E-6	-43.630109
1.52941E-6	-43.59618
1.529455E-6	-43.591212
1.5295E-6	-43.556599
1.529545E-6	-43.564486
1.52959E-6	-43.575355
1.529635E-6	-43.590219
1.52968E-6	-43.555614
1.529725E-6	-43.562513
1.52977E-6	-43.568435
1.529815E-6	-43.607128
1.52986E-6	-43.608124
1.529905E-6	-43.625103
1.52995E-6	-43.598168
1.529995E-6	-43.608124
1.53004E-6	-43.615107
1.530085E-6	-43.610118
1.53013E-6	-43.608124
1.530175E-6	-43.581295
1.53022E-6	-43.557584
1.530265E-6	-43.553645
1.53031E-6	-43.56646
1.530355E-6	-43.595186
1.5304E-6	-43.556599
1.530445E-6	-43.56646
1.53049E-6	-43.559555
1.530535E-6	-43.580304
1.53058E-6	-43.604139
1.530625E-6	-43.635121
1.53067E-6	-43.621102
1.530715E-6	-43.635121
1.53076E-6	-43.651199
1.530805E-6	-43.642148
1.53085E-6	-43.661277
1.530895E-6	-43.652205
1.53094E-6	-43.645163
1.530985E-6	-43.624102
1.53103E-6	-43.645163
1.531075E-6	-43.653212
1.53112E-6	-43.645163
1.531165E-6	-43.656235
1.53121E-6	-43.677452
1.531255E-6	-43.667336
1.5313E-6	-43.704885
1.531345E-6	-43.711004
1.53139E-6	-43.748934
1.531435E-6	-43.754085
1.53148E-6	-43.745846
1.531525E-6	-43.768541
1.53157E-6	-43.8122
1.531615E-6	-43.806979
1.53166E-6	-43.8122
1.531705E-6	-43.826851
1.53175E-6	-43.809067
1.531795E-6	-43.818473
1.53184E-6	-43.8122
1.531885E-6	-43.838397
1.53193E-6	-43.846813
1.531975E-6	-43.847867
1.53202E-6	-43.872161
1.532065E-6	-43.890206
1.53211E-6	-43.927595
1.532155E-6	-43.965308
1.5322E-6	-43.992449
1.532245E-6	-43.998987
1.53229E-6	-44.035129
1.532335E-6	-44.045038
1.53238E-6	-44.068247
1.532425E-6	-44.081566
1.53247E-6	-44.111683
1.532515E-6	-44.101621
1.53256E-6	-44.124013
1.532605E-6	-44.128505
1.53265E-6	-44.169146
1.532695E-6	-44.162346
1.53274E-6	-44.171415
1.532785E-6	-44.197595
1.53283E-6	-44.22738
1.532875E-6	-44.285241
1.53292E-6	-44.320331
1.532965E-6	-44.334447
1.53301E-6	-44.371126
1.533055E-6	-44.404524
1.5331E-6	-44.435769
1.533145E-6	-44.480623
1.53319E-6	-44.479405
1.533235E-6	-44.509967
1.53328E-6	-44.530874
1.533325E-6	-44.535807
1.53337E-6	-44.564286
1.533415E-6	-44.574235
1.53346E-6	-44.599209
1.533505E-6	-44.634416
1.53355E-6	-44.653394
1.533595E-6	-44.70698
1.53364E-6	-44.749552
1.533685E-6	-44.771647
1.53373E-6	-44.806972
1.533775E-6	-44.855851
1.53382E-6	-44.898573
1.533865E-6	-44.945787
1.53391E-6	-44.953932
1.533955E-6	-44.996263
1.534E-6	-45.030704
1.534045E-6	-45.048721
1.53409E-6	-45.076587
1.534135E-6	-45.086383
1.53418E-6	-45.096201
1.534225E-6	-45.137112
1.53427E-6	-45.15131
1.534315E-6	-45.201369
1.53436E-6	-45.236032
1.534405E-6	-45.254924
1.53445E-6	-45.297366
1.534495E-6	-45.343198
1.53454E-6	-45.398542
1.534585E-6	-45.462231
1.53463E-6	-45.483671
1.534675E-6	-45.531523
1.53472E-6	-45.543958
1.534765E-6	-45.578339
1.53481E-6	-45.62091
1.534855E-6	-45.660702
1.5349E-6	-45.668705
1.534945E-6	-45.673513
1.53499E-6	-45.692801
1.535035E-6	-45.721894
1.53508E-6	-45.788899
1.535125E-6	-45.810362
1.53517E-6	-45.83859
1.535215E-6	-45.872036
1.53526E-6	-45.9176
1.535305E-6	-45.968795
1.53535E-6	-46.032777
1.535395E-6	-46.057235
1.53544E-6	-46.088884
1.535485E-6	-46.124322
1.53553E-6	-46.156466
1.535575E-6	-46.187044
1.53562E-6	-46.236056
1.535665E-6	-46.239708
1.53571E-6	-46.243364
1.535755E-6	-46.23423
1.5358E-6	-46.278247
1.535845E-6	-46.322715
1.53589E-6	-46.35074
1.535935E-6	-46.38461
1.53598E-6	-46.407338
1.536025E-6	-46.434006
1.53607E-6	-46.485902
1.536115E-6	-46.550186
1.53616E-6	-46.591595
1.536205E-6	-46.601512
1.53625E-6	-46.629403
1.536295E-6	-46.647427
1.53634E-6	-46.673596
1.536385E-6	-46.701955
1.53643E-6	-46.714166
1.536475E-6	-46.720284
1.53652E-6	-46.726411
1.536565E-6	-46.736641
1.53661E-6	-46.751005
1.536655E-6	-46.813107
1.5367E-6	-46.804776
1.536745E-6	-46.827727
1.53679E-6	-46.857113
1.536835E-6	-46.912222
1.53688E-6	-46.933606
1.536925E-6	-46.968039
1.53697E-6	-46.985359
1.537015E-6	-47.013652
1.53706E-6	-47.031155
1.537105E-6	-47.044329
1.53715E-6	-47.084092
1.537195E-6	-47.066374
1.53724E-6	-47.064165
1.537285E-6	-47.044329
1.53733E-6	-47.064165
1.537375E-6	-47.075224
1.53742E-6	-47.099654
1.537465E-6	-47.088532
1.53751E-6	-47.108572
1.537555E-6	-47.115272
1.5376E-6	-47.155693
1.537645E-6	-47.212464
1.53769E-6	-47.228494
1.537735E-6	-47.276942
1.53778E-6	-47.246886
1.537825E-6	-47.288557
1.53787E-6	-47.269987
1.537915E-6	-47.283907
1.53796E-6	-47.300203
1.538005E-6	-47.283907
1.53805E-6	-47.260732
1.538095E-6	-47.23998
1.53814E-6	-47.23998
1.538185E-6	-47.260732
1.53823E-6	-47.267672
1.538275E-6	-47.251497
1.53832E-6	-47.253804
1.538365E-6	-47.267672
1.53841E-6	-47.325936
1.538455E-6	-47.342391
1.5385E-6	-47.361273
1.538545E-6	-47.344747
1.53859E-6	-47.380238
1.538635E-6	-47.384992
1.53868E-6	-47.382615
1.538725E-6	-47.387371
1.53877E-6	-47.361273
1.538815E-6	-47.335331
1.53886E-6	-47.321246
1.538905E-6	-47.309543
1.53895E-6	-47.32359
1.538995E-6	-47.316561
1.53904E-6	-47.295541
1.539085E-6	-47.295541
1.53913E-6	-47.302536
1.539175E-6	-47.316561
1.53922E-6	-47.363639
1.539265E-6	-47.377863
1.53931E-6	-47.356545
1.539355E-6	-47.373117
1.5394E-6	-47.358908
1.539445E-6	-47.384992
1.53949E-6	-47.380238
1.539535E-6	-47.368375
1.53958E-6	-47.328283
1.539625E-6	-47.311881
1.53967E-6	-47.297871
1.539715E-6	-47.276942
1.53976E-6	-47.279262
1.539805E-6	-47.272304
1.53985E-6	-47.23768
1.539895E-6	-47.249191
1.53994E-6	-47.274622
1.539985E-6	-47.290884
1.54003E-6	-47.300203
1.540075E-6	-47.307206
1.54012E-6	-47.318903
1.540165E-6	-47.321246
1.54021E-6	-47.309543
1.540255E-6	-47.300203
1.5403E-6	-47.290884
1.540345E-6	-47.286231
1.54039E-6	-47.263044
1.540435E-6	-47.217038
1.54048E-6	-47.207895
1.540525E-6	-47.185121
1.54057E-6	-47.166988
1.540615E-6	-47.160207
1.54066E-6	-47.176045
1.540705E-6	-47.164726
1.54075E-6	-47.196493
1.540795E-6	-47.210179
1.54084E-6	-47.223908
1.540885E-6	-47.217038
1.54093E-6	-47.23768
1.540975E-6	-47.228494
1.54102E-6	-47.228494
1.541065E-6	-47.203331
1.54111E-6	-47.185121
1.541155E-6	-47.180581
1.5412E-6	-47.160207
1.541245E-6	-47.097427
1.54129E-6	-47.081873
1.541335E-6	-47.075224
1.54138E-6	-47.070797
1.541425E-6	-47.068585
1.54147E-6	-47.059749
1.541515E-6	-47.068585
1.54156E-6	-47.064165
1.541605E-6	-47.113037
1.54165E-6	-47.117508
1.541695E-6	-47.126462
1.54174E-6	-47.139929
1.541785E-6	-47.126462
1.54183E-6	-47.108572
1.541875E-6	-47.10411
1.54192E-6	-47.084092
1.541965E-6	-47.061956
1.54201E-6	-47.028963
1.542055E-6	-47.009287
1.5421E-6	-46.987529
1.542145E-6	-46.978856
1.54219E-6	-46.9897
1.542235E-6	-46.970201
1.54228E-6	-46.983191
1.542325E-6	-46.981023
1.54237E-6	-46.981023
1.542415E-6	-47.013652
1.54246E-6	-47.057543
1.542505E-6	-47.057543
1.54255E-6	-47.026773
1.542595E-6	-47.007107
1.54264E-6	-47.020208
1.542685E-6	-47.020208
1.54273E-6	-47.018021
1.542775E-6	-46.976691
1.54282E-6	-46.940041
1.542865E-6	-46.91009
1.54291E-6	-46.895191
1.542955E-6	-46.914356
1.543E-6	-46.918626
1.543045E-6	-46.90157
1.54309E-6	-46.905828
1.543135E-6	-46.899443
1.54318E-6	-46.955095
1.543225E-6	-46.978856
1.54327E-6	-46.996219
1.543315E-6	-47.004927
1.54336E-6	-46.974526
1.543405E-6	-46.996219
1.54345E-6	-46.983191
1.543495E-6	-46.996219
1.54354E-6	-46.974526
1.543585E-6	-46.918626
1.54363E-6	-46.88458
1.543675E-6	-46.880343
1.54372E-6	-46.893067
1.543765E-6	-46.8867
1.54381E-6	-46.90157
1.543855E-6	-46.8867
1.5439E-6	-46.882461
1.543945E-6	-46.899443
1.54399E-6	-46.955095
1.544035E-6	-46.983191
1.54408E-6	-46.987529
1.544125E-6	-46.972363
1.54417E-6	-46.976691
1.544215E-6	-46.983191
1.54426E-6	-46.991872
1.544305E-6	-46.987529
1.54435E-6	-46.970201
1.544395E-6	-46.914356
1.54444E-6	-46.888822
1.544485E-6	-46.897316
1.54453E-6	-46.895191
1.544575E-6	-46.905828
1.54462E-6	-46.914356
1.544665E-6	-46.882461
1.54471E-6	-46.905828
1.544755E-6	-46.946486
1.5448E-6	-46.978856
1.544845E-6	-47.013652
1.54489E-6	-46.985359
1.544935E-6	-46.991872
1.54498E-6	-47.007107
1.545025E-6	-46.991872
1.54507E-6	-46.88458
1.545115E-6	-44.292236
1.54516E-6	-35.813673
1.545205E-6	-30.853924
1.54525E-6	-28.722475
1.545295E-6	-28.204482
1.54534E-6	-28.155925
1.545385E-6	-28.08549
1.54543E-6	-28.133261
1.545475E-6	-28.541823
1.54552E-6	-30.503173
1.545565E-6	-35.281218
1.54561E-6	-42.705112
1.545655E-6	-46.449318
1.5457E-6	-46.92932
1.545745E-6	-47.020208
1.54579E-6	-47.039933
1.545835E-6	-47.070797
1.54588E-6	-47.066374
1.545925E-6	-47.039933
1.54597E-6	-47.000571
1.546015E-6	-46.9897
1.54606E-6	-46.978856
1.546105E-6	-46.983191
1.54615E-6	-46.981023
1.546195E-6	-46.974526
1.54624E-6	-46.974526
1.546285E-6	-46.998395
1.54633E-6	-47.022395
1.546375E-6	-47.068585
1.54642E-6	-47.084092
1.546465E-6	-47.092978
1.54651E-6	-47.113037
1.546555E-6	-47.124222
1.5466E-6	-47.130946
1.546645E-6	-47.126462
1.54669E-6	-47.119745
1.546735E-6	-47.101882
1.54678E-6	-47.068585
1.546825E-6	-47.057543
1.54687E-6	-47.053134
1.546915E-6	-47.053134
1.54696E-6	-47.053134
1.547005E-6	-47.048729
1.54705E-6	-47.064165
1.547095E-6	-47.081873
1.54714E-6	-47.108572
1.547185E-6	-47.137681
1.54723E-6	-47.162466
1.547275E-6	-47.173779
1.54732E-6	-47.185121
1.547365E-6	-47.194216
1.54741E-6	-47.198771
1.547455E-6	-47.191941
1.5475E-6	-47.187393
1.547545E-6	-47.162466
1.54759E-6	-47.130946
1.547635E-6	-47.110804
1.54768E-6	-47.10411
1.547725E-6	-47.101882
1.54777E-6	-47.108572
1.547815E-6	-47.117508
1.54786E-6	-47.135435
1.547905E-6	-47.155693
1.54795E-6	-47.180581
1.547995E-6	-47.210179
1.54804E-6	-47.23998
1.548085E-6	-47.260732
1.54813E-6	-47.267672
1.548175E-6	-47.272304
1.54822E-6	-47.267672
1.548265E-6	-47.256112
1.54831E-6	-47.256112
1.548355E-6	-47.217038
1.5484E-6	-47.20105
1.548445E-6	-47.173779
1.54849E-6	-47.157949
1.548535E-6	-47.160207
1.54858E-6	-47.180581
1.548625E-6	-47.176045
1.54867E-6	-47.196493
1.548715E-6	-47.207895
1.54876E-6	-47.235382
1.548805E-6	-47.274622
1.54885E-6	-47.293212
1.548895E-6	-47.309543
1.54894E-6	-47.309543
1.548985E-6	-47.311881
1.54903E-6	-47.302536
1.549075E-6	-47.302536
1.54912E-6	-47.297871
1.549165E-6	-47.272304
1.54921E-6	-47.228494
1.549255E-6	-47.20105
1.5493E-6	-47.198771
1.549345E-6	-47.207895
1.54939E-6	-47.221617
1.549435E-6	-47.223908
1.54948E-6	-47.217038
1.549525E-6	-47.23768
1.54957E-6	-47.281584
1.549615E-6	-47.316561
1.54966E-6	-47.347104
1.549705E-6	-47.356545
1.54975E-6	-47.347104
1.549795E-6	-47.325936
1.54984E-6	-47.276942
1.549885E-6	-46.922901
1.54993E-6	-40.977251
1.549975E-6	-32.66883
1.55002E-6	-29.157813
1.550065E-6	-28.01893
1.55011E-6	-27.814645
1.550155E-6	-27.77804
1.5502E-6	-27.762445
1.550245E-6	-27.796304
1.55029E-6	-28.610661
1.550335E-6	-31.398417
1.55038E-6	-37.880789
1.550425E-6	-45.134278
1.55047E-6	-47.004927
1.550515E-6	-47.288557
1.55056E-6	-47.337683
1.550605E-6	-47.340036
1.55065E-6	-47.354183
1.550695E-6	-47.368375
1.55074E-6	-47.33298
1.550785E-6	-47.297871
1.55083E-6	-47.242281
1.550875E-6	-47.246886
1.55092E-6	-47.235382
1.550965E-6	-47.253804
1.55101E-6	-47.23998
1.551055E-6	-47.23998
1.5511E-6	-47.253804
1.551145E-6	-47.276942
1.55119E-6	-47.335331
1.551235E-6	-47.366007
1.55128E-6	-47.366007
1.551325E-6	-47.356545
1.55137E-6	-47.349462
1.551415E-6	-47.356545
1.55146E-6	-47.363639
1.551505E-6	-47.363639
1.55155E-6	-47.318903
1.551595E-6	-47.263044
1.55164E-6	-47.23768
1.551685E-6	-47.246886
1.55173E-6	-47.23998
1.551775E-6	-47.244583
1.55182E-6	-47.23768
1.551865E-6	-47.2262
1.55191E-6	-47.242281
1.551955E-6	-47.283907
1.552E-6	-47.337683
1.552045E-6	-47.358908
1.55209E-6	-47.361273
1.552135E-6	-47.347104
1.55218E-6	-47.361273
1.552225E-6	-47.361273
1.55227E-6	-47.368375
1.552315E-6	-47.356545
1.55236E-6	-47.290884
1.552405E-6	-47.23998
1.55245E-6	-47.235382
1.552495E-6	-47.219327
1.55254E-6	-47.23998
1.552585E-6	-47.2262
1.55263E-6	-47.221617
1.552675E-6	-47.210179
1.55272E-6	-47.2262
1.552765E-6	-47.286231
1.55281E-6	-47.325936
1.552855E-6	-47.340036
1.5529E-6	-47.337683
1.552945E-6	-47.335331
1.55299E-6	-47.344747
1.553035E-6	-47.351822
1.55308E-6	-47.351822
1.553125E-6	-47.325936
1.55317E-6	-47.265357
1.553215E-6	-47.2262
1.55326E-6	-47.212464
1.553305E-6	-47.217038
1.55335E-6	-47.207895
1.553395E-6	-47.194216
1.55344E-6	-47.191941
1.553485E-6	-47.196493
1.55353E-6	-47.2262
1.553575E-6	-47.276942
1.55362E-6	-47.309543
1.553665E-6	-47.318903
1.55371E-6	-47.340036
1.553755E-6	-47.328283
1.5538E-6	-47.344747
1.553845E-6	-47.32359
1.55389E-6	-47.32359
1.553935E-6	-47.295541
1.55398E-6	-47.260732
1.554025E-6	-47.223908
1.55407E-6	-47.187393
1.554115E-6	-47.196493
1.55416E-6	-47.189666
1.554205E-6	-47.176045
1.55425E-6	-47.187393
1.554295E-6	-47.194216
1.55434E-6	-47.2262
1.554385E-6	-47.263044
1.55443E-6	-47.304871
1.554475E-6	-47.316561
1.55452E-6	-47.309543
1.554565E-6	-47.337683
1.55461E-6	-47.340036
1.554655E-6	-47.321246
1.5547E-6	-47.309543
1.554745E-6	-47.293212
1.55479E-6	-47.246886
1.554835E-6	-47.198771
1.55488E-6	-47.189666
1.554925E-6	-47.16925
1.55497E-6	-47.157949
1.555015E-6	-47.173779
1.55506E-6	-47.166988
1.555105E-6	-47.176045
1.55515E-6	-47.207895
1.555195E-6	-47.246886
1.55524E-6	-47.297871
1.555285E-6	-47.302536
1.55533E-6	-47.318903
1.555375E-6	-47.325936
1.55542E-6	-47.325936
1.555465E-6	-47.309543
1.55551E-6	-47.316561
1.555555E-6	-47.283907
1.5556E-6	-47.251497
1.555645E-6	-47.212464
1.55569E-6	-47.18285
1.555735E-6	-47.176045
1.55578E-6	-47.166988
1.555825E-6	-47.18285
1.55587E-6	-47.18285
1.555915E-6	-47.185121
1.55596E-6	-47.223908
1.556005E-6	-47.256112
1.55605E-6	-47.309543
1.556095E-6	-47.328283
1.55614E-6	-47.33298
1.556185E-6	-47.335331
1.55623E-6	-47.335331
1.556275E-6	-47.318903
1.55632E-6	-47.32359
1.556365E-6	-47.311881
1.55641E-6	-47.253804
1.556455E-6	-47.207895
1.5565E-6	-47.189666
1.556545E-6	-47.173779
1.55659E-6	-47.178312
1.556635E-6	-47.196493
1.55668E-6	-47.212464
1.556725E-6	-47.20105
1.55677E-6	-47.233085
1.556815E-6	-47.283907
1.55686E-6	-47.344747
1.556905E-6	-47.370745
1.55695E-6	-47.370745
1.556995E-6	-47.361273
1.55704E-6	-47.366007
1.557085E-6	-47.366007
1.55713E-6	-47.370745
1.557175E-6	-47.363639
1.55722E-6	-47.300203
1.557265E-6	-47.251497
1.55731E-6	-47.233085
1.557355E-6	-47.242281
1.5574E-6	-47.251497
1.557445E-6	-47.253804
1.55749E-6	-47.260732
1.557535E-6	-47.269987
1.55758E-6	-47.300203
1.557625E-6	-47.354183
1.55767E-6	-47.423214
1.557715E-6	-47.442452
1.55776E-6	-47.442452
1.557805E-6	-47.442452
1.55785E-6	-47.435228
1.557895E-6	-47.444863
1.55794E-6	-47.46662
1.557985E-6	-47.444863
1.55803E-6	-47.375489
1.558075E-6	-47.325936
1.55812E-6	-47.328283
1.558165E-6	-47.33298
1.55821E-6	-47.349462
1.558255E-6	-47.342391
1.5583E-6	-47.349462
1.558345E-6	-47.361273
1.55839E-6	-47.401673
1.558435E-6	-47.476325
1.55848E-6	-47.525177
1.558525E-6	-47.547342
1.55857E-6	-47.552282
1.558615E-6	-47.549811
1.55866E-6	-47.564659
1.558705E-6	-47.574586
1.55875E-6	-47.587026
1.558795E-6	-47.564659
1.55884E-6	-47.503126
1.558885E-6	-47.469044
1.55893E-6	-47.461776
1.558975E-6	-47.476325
1.55902E-6	-47.488487
1.559065E-6	-47.4958
1.55911E-6	-47.493361
1.559155E-6	-47.510464
1.5592E-6	-47.564659
1.559245E-6	-47.639669
1.55929E-6	-47.698066
1.559335E-6	-47.726276
1.55938E-6	-47.708303
1.559425E-6	-47.715996
1.55947E-6	-47.74174
1.559515E-6	-47.765041
1.55956E-6	-47.767637
1.559605E-6	-47.734001
1.55965E-6	-47.687854
1.559695E-6	-47.657359
1.55974E-6	-47.6675
1.559785E-6	-47.6675
1.55983E-6	-47.682756
1.559875E-6	-47.695511
1.55992E-6	-47.682756
1.559965E-6	-47.705742
1.56001E-6	-47.77804
1.560055E-6	-47.846268
1.5601E-6	-47.89414
1.560145E-6	-47.9129
1.56019E-6	-47.931741
1.560235E-6	-47.93444
1.56028E-6	-47.964232
1.560325E-6	-47.983298
1.56037E-6	-47.983298
1.560415E-6	-47.9588
1.56046E-6	-47.907532
1.560505E-6	-47.878124
1.56055E-6	-47.888795
1.560595E-6	-47.9129
1.56064E-6	-47.910215
1.560685E-6	-47.923656
1.56073E-6	-47.931741
1.560775E-6	-47.950665
1.56082E-6	-48.01893
1.560865E-6	-48.091083
1.56091E-6	-48.136088
1.560955E-6	-48.16161
1.561E-6	-48.175853
1.561045E-6	-48.195874
1.56109E-6	-48.224635
1.561135E-6	-48.236193
1.56118E-6	-48.244882
1.561225E-6	-48.207355
1.56127E-6	-48.190144
1.561315E-6	-48.158766
1.56136E-6	-48.16161
1.561405E-6	-48.17015
1.56145E-6	-48.175853
1.561495E-6	-48.193008
1.56154E-6	-48.218867
1.561585E-6	-48.247782
1.56163E-6	-48.300318
1.561675E-6	-48.37137
1.56172E-6	-48.416375
1.561765E-6	-48.443604
1.56181E-6	-48.471004
1.561855E-6	-48.489367
1.5619E-6	-48.507809
1.561945E-6	-48.526329
1.56199E-6	-48.529423
1.562035E-6	-48.520147
1.56208E-6	-48.492436
1.562125E-6	-48.461851
1.56217E-6	-48.45576
1.562215E-6	-48.471004
1.56226E-6	-48.474059
1.562305E-6	-48.513973
1.56235E-6	-48.520147
1.562395E-6	-48.548036
1.56244E-6	-48.582368
1.562485E-6	-48.661419
1.56253E-6	-48.709549
1.562575E-6	-48.754958
1.56262E-6	-48.78112
1.562665E-6	-48.804142
1.56271E-6	-48.830604
1.562755E-6	-48.847224
1.5628E-6	-48.850556
1.562845E-6	-48.840568
1.56289E-6	-48.814046
1.562935E-6	-48.804142
1.56298E-6	-48.78112
1.563025E-6	-48.794261
1.56307E-6	-48.814046
1.563115E-6	-48.830604
1.56316E-6	-48.860566
1.563205E-6	-48.880657
1.56325E-6	-48.934691
1.563295E-6	-48.979095
1.56334E-6	-49.055289
1.563385E-6	-49.115095
1.56343E-6	-49.136402
1.563475E-6	-49.143527
