Wavelength (nm)	Power (dBm)
1.525E-6	-48.071539
1.525045E-6	-47.977842
1.52509E-6	-47.886124
1.525135E-6	-47.791078
1.52518E-6	-47.687854
1.525225E-6	-47.587026
1.52527E-6	-47.500682
1.525315E-6	-47.430418
1.52536E-6	-47.347104
1.525405E-6	-47.272304
1.52545E-6	-47.14893
1.525495E-6	-47.070797
1.52554E-6	-46.998395
1.525585E-6	-46.93575
1.52563E-6	-46.846595
1.525675E-6	-46.755118
1.52572E-6	-46.673596
1.525765E-6	-46.607474
1.52581E-6	-46.544302
1.525855E-6	-46.468535
1.5259E-6	-46.399749
1.525945E-6	-46.322715
1.52599E-6	-46.245193
1.526035E-6	-46.197888
1.52608E-6	-46.127882
1.526125E-6	-46.067759
1.52617E-6	-45.992894
1.526215E-6	-45.909126
1.52626E-6	-45.865326
1.526305E-6	-45.805399
1.52635E-6	-45.75445
1.526395E-6	-45.683147
1.52644E-6	-45.617742
1.526485E-6	-45.568935
1.52653E-6	-45.52222
1.526575E-6	-45.472938
1.52662E-6	-45.424209
1.526665E-6	-45.36555
1.52671E-6	-45.313573
1.526755E-6	-45.262212
1.5268E-6	-45.218666
1.526845E-6	-45.187007
1.52689E-6	-45.135695
1.526935E-6	-45.084982
1.52698E-6	-45.043169
1.527025E-6	-44.996263
1.52707E-6	-44.963455
1.527115E-6	-44.91605
1.52716E-6	-44.871822
1.527205E-6	-44.837291
1.52725E-6	-44.791236
1.527295E-6	-44.766438
1.52734E-6	-44.736607
1.527385E-6	-44.710833
1.52743E-6	-44.667365
1.527475E-6	-44.636941
1.52752E-6	-44.616777
1.527565E-6	-44.580465
1.52761E-6	-44.55932
1.527655E-6	-44.524714
1.5277E-6	-44.49527
1.527745E-6	-44.46724
1.52779E-6	-44.444219
1.527835E-6	-44.429743
1.52788E-6	-44.396151
1.527925E-6	-44.350973
1.52797E-6	-44.332091
1.528015E-6	-44.321505
1.52806E-6	-44.30509
1.528105E-6	-44.29107
1.52815E-6	-44.262004
1.528195E-6	-44.234283
1.52824E-6	-44.246967
1.528285E-6	-44.211317
1.52833E-6	-44.222785
1.528375E-6	-44.19189
1.52842E-6	-44.154426
1.528465E-6	-44.140883
1.52851E-6	-44.131877
1.528555E-6	-44.153296
1.5286E-6	-44.124013
1.528645E-6	-44.094925
1.52869E-6	-44.059391
1.528735E-6	-44.060497
1.52878E-6	-44.058285
1.528825E-6	-44.052761
1.52887E-6	-44.03953
1.528915E-6	-44.019759
1.52896E-6	-43.998987
1.529005E-6	-44.002261
1.52905E-6	-44.013189
1.529095E-6	-44.006629
1.52914E-6	-44.017568
1.529185E-6	-43.976144
1.52923E-6	-43.972891
1.529275E-6	-43.971807
1.52932E-6	-43.967473
1.529365E-6	-43.965308
1.52941E-6	-43.945872
1.529455E-6	-43.937261
1.5295E-6	-43.929741
1.529545E-6	-43.922234
1.52959E-6	-43.919021
1.529635E-6	-43.923306
1.52968E-6	-43.911532
1.529725E-6	-43.895528
1.52977E-6	-43.907258
1.529815E-6	-43.95342
1.52986E-6	-43.927595
1.529905E-6	-43.912601
1.52995E-6	-43.907258
1.529995E-6	-43.910463
1.53004E-6	-43.91367
1.530085E-6	-43.930815
1.53013E-6	-43.930815
1.530175E-6	-43.901922
1.53022E-6	-43.892334
1.530265E-6	-43.894463
1.53031E-6	-43.906191
1.530355E-6	-43.905123
1.5304E-6	-43.91367
1.530445E-6	-43.904056
1.53049E-6	-43.919021
1.530535E-6	-43.912601
1.53058E-6	-43.928668
1.530625E-6	-43.935111
1.53067E-6	-43.927595
1.530715E-6	-43.92545
1.53076E-6	-43.948027
1.530805E-6	-43.952341
1.53085E-6	-43.968556
1.530895E-6	-43.975059
1.53094E-6	-43.952341
1.530985E-6	-43.948027
1.53103E-6	-43.978314
1.531075E-6	-43.973975
1.53112E-6	-43.985919
1.531165E-6	-43.981572
1.53121E-6	-43.993538
1.531255E-6	-44.006629
1.5313E-6	-44.020855
1.531345E-6	-44.041732
1.53139E-6	-44.048346
1.531435E-6	-44.056074
1.53148E-6	-44.058285
1.531525E-6	-44.087127
1.53157E-6	-44.109445
1.531615E-6	-44.10609
1.53166E-6	-44.110564
1.531705E-6	-44.125135
1.53175E-6	-44.128505
1.531795E-6	-44.143137
1.53184E-6	-44.166878
1.531885E-6	-44.193031
1.53193E-6	-44.199879
1.531975E-6	-44.197595
1.53202E-6	-44.235435
1.532065E-6	-44.243504
1.53211E-6	-44.267802
1.532155E-6	-44.286406
1.5322E-6	-44.321505
1.532245E-6	-44.309774
1.53229E-6	-44.337983
1.532335E-6	-44.374692
1.53238E-6	-44.391373
1.532425E-6	-44.400934
1.53247E-6	-44.417716
1.532515E-6	-44.433357
1.53256E-6	-44.464811
1.532605E-6	-44.479405
1.53265E-6	-44.508741
1.532695E-6	-44.507514
1.53274E-6	-44.541982
1.532785E-6	-44.555599
1.53283E-6	-44.595454
1.532875E-6	-44.636941
1.53292E-6	-44.648325
1.532965E-6	-44.682657
1.53301E-6	-44.699284
1.533055E-6	-44.728859
1.5331E-6	-44.771647
1.533145E-6	-44.803032
1.53319E-6	-44.810914
1.533235E-6	-44.846561
1.53328E-6	-44.882503
1.533325E-6	-44.90663
1.53337E-6	-44.933597
1.533415E-6	-44.958011
1.53346E-6	-44.967542
1.533505E-6	-44.997635
1.53355E-6	-45.036239
1.533595E-6	-45.076587
1.53364E-6	-45.110265
1.533685E-6	-45.137112
1.53373E-6	-45.174122
1.533775E-6	-45.202808
1.53382E-6	-45.259295
1.533865E-6	-45.298836
1.53391E-6	-45.320961
1.533955E-6	-45.362563
1.534E-6	-45.398542
1.534045E-6	-45.43027
1.53409E-6	-45.448505
1.534135E-6	-45.488278
1.53418E-6	-45.516029
1.534225E-6	-45.545515
1.53427E-6	-45.57677
1.534315E-6	-45.612995
1.53436E-6	-45.663902
1.534405E-6	-45.692801
1.53445E-6	-45.70894
1.534495E-6	-45.762628
1.53454E-6	-45.810362
1.534585E-6	-45.861975
1.53463E-6	-45.893915
1.534675E-6	-45.926091
1.53472E-6	-45.949953
1.534765E-6	-46.003263
1.53481E-6	-46.055483
1.534855E-6	-46.081831
1.5349E-6	-46.092415
1.534945E-6	-46.117211
1.53499E-6	-46.170829
1.535035E-6	-46.205132
1.53508E-6	-46.248853
1.535125E-6	-46.278247
1.53517E-6	-46.33577
1.535215E-6	-46.365761
1.53526E-6	-46.403542
1.535305E-6	-46.445485
1.53535E-6	-46.495581
1.535395E-6	-46.540385
1.53544E-6	-46.565914
1.535485E-6	-46.585655
1.53553E-6	-46.619421
1.535575E-6	-46.663512
1.53562E-6	-46.706021
1.535665E-6	-46.734593
1.53571E-6	-46.746896
1.535755E-6	-46.765416
1.5358E-6	-46.827727
1.535845E-6	-46.865546
1.53589E-6	-46.890944
1.535935E-6	-46.922901
1.53598E-6	-46.948637
1.536025E-6	-46.974526
1.53607E-6	-47.028963
1.536115E-6	-47.061956
1.53616E-6	-47.10411
1.536205E-6	-47.117508
1.53625E-6	-47.155693
1.536295E-6	-47.173779
1.53634E-6	-47.205612
1.536385E-6	-47.23998
1.53643E-6	-47.267672
1.536475E-6	-47.279262
1.53652E-6	-47.288557
1.536565E-6	-47.318903
1.53661E-6	-47.351822
1.536655E-6	-47.399286
1.5367E-6	-47.406451
1.536745E-6	-47.430418
1.53679E-6	-47.454519
1.536835E-6	-47.481185
1.53688E-6	-47.520267
1.536925E-6	-47.544873
1.53697E-6	-47.572102
1.537015E-6	-47.607005
1.53706E-6	-47.609509
1.537105E-6	-47.637147
1.53715E-6	-47.675121
1.537195E-6	-47.700623
1.53724E-6	-47.685304
1.537285E-6	-47.685304
1.53733E-6	-47.71343
1.537375E-6	-47.731424
1.53742E-6	-47.754669
1.537465E-6	-47.754669
1.53751E-6	-47.767637
1.537555E-6	-47.77804
1.5376E-6	-47.809397
1.537645E-6	-47.843624
1.53769E-6	-47.862167
1.537735E-6	-47.87546
1.53778E-6	-47.872798
1.537825E-6	-47.896815
1.53787E-6	-47.907532
1.537915E-6	-47.931741
1.53796E-6	-47.931741
1.538005E-6	-47.920965
1.53805E-6	-47.920965
1.538095E-6	-47.92635
1.53814E-6	-47.942545
1.538185E-6	-47.977842
1.53823E-6	-47.969671
1.538275E-6	-47.980569
1.53832E-6	-47.953375
1.538365E-6	-47.972393
1.53841E-6	-48.002448
1.538455E-6	-48.024438
1.5385E-6	-48.021683
1.538545E-6	-48.027194
1.53859E-6	-48.021683
1.538635E-6	-48.046539
1.53868E-6	-48.043771
1.538725E-6	-48.041003
1.53877E-6	-48.027194
1.538815E-6	-48.021683
1.53886E-6	-48.01893
1.538905E-6	-48.021683
1.53895E-6	-48.029953
1.538995E-6	-48.027194
1.53904E-6	-47.999707
1.539085E-6	-48.016179
1.53913E-6	-48.024438
1.539175E-6	-48.032713
1.53922E-6	-48.046539
1.539265E-6	-48.046539
1.53931E-6	-48.032713
1.539355E-6	-48.04931
1.5394E-6	-48.057633
1.539445E-6	-48.06041
1.53949E-6	-48.04931
1.539535E-6	-48.038238
1.53958E-6	-48.016179
1.539625E-6	-48.005191
1.53967E-6	-48.005191
1.539715E-6	-48.010681
1.53976E-6	-48.002448
1.539805E-6	-47.999707
1.53985E-6	-47.966951
1.539895E-6	-47.983298
1.53994E-6	-47.977842
1.539985E-6	-47.975117
1.54003E-6	-47.983298
1.540075E-6	-47.977842
1.54012E-6	-47.977842
1.540165E-6	-47.991495
1.54021E-6	-47.994231
1.540255E-6	-47.964232
1.5403E-6	-47.953375
1.540345E-6	-47.942545
1.54039E-6	-47.923656
1.540435E-6	-47.92635
1.54048E-6	-47.896815
1.540525E-6	-47.89414
1.54057E-6	-47.872798
1.540615E-6	-47.87546
1.54066E-6	-47.872798
1.540705E-6	-47.872798
1.54075E-6	-47.867479
1.540795E-6	-47.862167
1.54084E-6	-47.870138
1.540885E-6	-47.872798
1.54093E-6	-47.87546
1.540975E-6	-47.870138
1.54102E-6	-47.87546
1.541065E-6	-47.848914
1.54111E-6	-47.843624
1.541155E-6	-47.843624
1.5412E-6	-47.814645
1.541245E-6	-47.81202
1.54129E-6	-47.796304
1.541335E-6	-47.765041
1.54138E-6	-47.765041
1.541425E-6	-47.762445
1.54147E-6	-47.767637
1.541515E-6	-47.762445
1.54156E-6	-47.765041
1.541605E-6	-47.749493
1.54165E-6	-47.765041
1.541695E-6	-47.759852
1.54174E-6	-47.765041
1.541785E-6	-47.75726
1.54183E-6	-47.75726
1.541875E-6	-47.715996
1.54192E-6	-47.726276
1.541965E-6	-47.718564
1.54201E-6	-47.705742
1.542055E-6	-47.6675
1.5421E-6	-47.687854
1.542145E-6	-47.644716
1.54219E-6	-47.662426
1.542235E-6	-47.664962
1.54228E-6	-47.662426
1.542325E-6	-47.639669
1.54237E-6	-47.652297
1.542415E-6	-47.675121
1.54246E-6	-47.662426
1.542505E-6	-47.6675
1.54255E-6	-47.657359
1.542595E-6	-47.647241
1.54264E-6	-47.637147
1.542685E-6	-47.642191
1.54273E-6	-47.634627
1.542775E-6	-47.629592
1.54282E-6	-47.592012
1.542865E-6	-47.587026
1.54291E-6	-47.582046
1.542955E-6	-47.592012
1.543E-6	-47.577071
1.543045E-6	-47.579558
1.54309E-6	-47.564659
1.543135E-6	-47.56962
1.54318E-6	-47.592012
1.543225E-6	-47.599502
1.54327E-6	-47.609509
1.543315E-6	-47.599502
1.54336E-6	-47.604503
1.543405E-6	-47.599502
1.54345E-6	-47.592012
1.543495E-6	-47.594508
1.54354E-6	-47.602002
1.543585E-6	-47.577071
1.54363E-6	-47.549811
1.543675E-6	-47.557229
1.54372E-6	-47.547342
1.543765E-6	-47.557229
1.54381E-6	-47.557229
1.543855E-6	-47.547342
1.5439E-6	-47.542406
1.543945E-6	-47.559704
1.54399E-6	-47.56962
1.544035E-6	-47.597004
1.54408E-6	-47.587026
1.544125E-6	-47.567139
1.54417E-6	-47.592012
1.544215E-6	-47.594508
1.54426E-6	-47.584535
1.544305E-6	-47.592012
1.54435E-6	-47.587026
1.544395E-6	-47.549811
1.54444E-6	-47.549811
1.544485E-6	-47.557229
1.54453E-6	-47.567139
1.544575E-6	-47.559704
1.54462E-6	-47.557229
1.544665E-6	-47.564659
1.54471E-6	-47.564659
1.544755E-6	-47.579558
1.5448E-6	-47.597004
1.544845E-6	-47.604503
1.54489E-6	-47.609509
1.544935E-6	-47.607005
1.54498E-6	-47.604503
1.545025E-6	-47.609509
1.54507E-6	-47.557229
1.545115E-6	-45.948245
1.54516E-6	-39.108016
1.545205E-6	-34.863829
1.54525E-6	-32.959353
1.545295E-6	-32.537551
1.54534E-6	-32.478747
1.545385E-6	-32.453459
1.54543E-6	-32.44049
1.545475E-6	-32.864255
1.54552E-6	-34.986668
1.545565E-6	-39.609827
1.54561E-6	-45.746288
1.545655E-6	-47.430418
1.5457E-6	-47.607005
1.545745E-6	-47.642191
1.54579E-6	-47.664962
1.545835E-6	-47.672579
1.54588E-6	-47.677665
1.545925E-6	-47.657359
1.54597E-6	-47.652297
1.546015E-6	-47.639669
1.54606E-6	-47.647241
1.546105E-6	-47.652297
1.54615E-6	-47.659892
1.546195E-6	-47.644716
1.54624E-6	-47.647241
1.546285E-6	-47.664962
1.54633E-6	-47.695511
1.546375E-6	-47.708303
1.54642E-6	-47.695511
1.546465E-6	-47.71343
1.54651E-6	-47.715996
1.546555E-6	-47.736579
1.5466E-6	-47.74174
1.546645E-6	-47.736579
1.54669E-6	-47.728849
1.546735E-6	-47.723704
1.54678E-6	-47.726276
1.546825E-6	-47.726276
1.54687E-6	-47.728849
1.546915E-6	-47.718564
1.54696E-6	-47.715996
1.547005E-6	-47.739159
1.54705E-6	-47.74174
1.547095E-6	-47.746907
1.54714E-6	-47.762445
1.547185E-6	-47.77804
1.54723E-6	-47.79369
1.547275E-6	-47.780644
1.54732E-6	-47.804155
1.547365E-6	-47.81202
1.54741E-6	-47.81202
1.547455E-6	-47.814645
1.5475E-6	-47.804155
1.547545E-6	-47.806775
1.54759E-6	-47.804155
1.547635E-6	-47.804155
1.54768E-6	-47.791078
1.547725E-6	-47.785858
1.54777E-6	-47.785858
1.547815E-6	-47.806775
1.54786E-6	-47.814645
1.547905E-6	-47.825161
1.54795E-6	-47.830428
1.547995E-6	-47.856861
1.54804E-6	-47.856861
1.548085E-6	-47.886124
1.54813E-6	-47.89414
1.548175E-6	-47.886124
1.54822E-6	-47.899492
1.548265E-6	-47.872798
1.54831E-6	-47.891466
1.548355E-6	-47.87546
1.5484E-6	-47.87546
1.548445E-6	-47.851562
1.54849E-6	-47.864822
1.548535E-6	-47.867479
1.54858E-6	-47.870138
1.548625E-6	-47.878124
1.54867E-6	-47.891466
1.548715E-6	-47.89414
1.54876E-6	-47.886124
1.548805E-6	-47.9129
1.54885E-6	-47.942545
1.548895E-6	-47.942545
1.54894E-6	-47.94525
1.548985E-6	-47.93714
1.54903E-6	-47.939841
1.549075E-6	-47.92635
1.54912E-6	-47.939841
1.549165E-6	-47.929045
1.54921E-6	-47.918275
1.549255E-6	-47.899492
1.5493E-6	-47.880789
1.549345E-6	-47.918275
1.54939E-6	-47.910215
1.549435E-6	-47.931741
1.54948E-6	-47.910215
1.549525E-6	-47.93444
1.54957E-6	-47.93714
1.549615E-6	-47.972393
1.54966E-6	-47.969671
1.549705E-6	-47.969671
1.54975E-6	-47.972393
1.549795E-6	-47.9588
1.54984E-6	-47.942545
1.549885E-6	-47.754669
1.54993E-6	-43.462088
1.549975E-6	-36.339508
1.55002E-6	-33.126494
1.550065E-6	-32.096445
1.55011E-6	-31.925326
1.550155E-6	-31.894987
1.5502E-6	-31.920593
1.550245E-6	-31.958606
1.55029E-6	-32.813323
1.550335E-6	-35.715412
1.55038E-6	-41.470932
1.550425E-6	-47.048729
1.55047E-6	-47.87546
1.550515E-6	-47.972393
1.55056E-6	-47.986029
1.550605E-6	-47.991495
1.55065E-6	-48.005191
1.550695E-6	-48.010681
1.55074E-6	-47.996968
1.550785E-6	-47.986029
1.55083E-6	-47.956087
1.550875E-6	-47.947956
1.55092E-6	-47.953375
1.550965E-6	-47.966951
1.55101E-6	-47.964232
1.551055E-6	-47.947956
1.5511E-6	-47.950665
1.551145E-6	-47.975117
1.55119E-6	-48.013429
1.551235E-6	-48.027194
1.55128E-6	-48.032713
1.551325E-6	-47.991495
1.55137E-6	-48.005191
1.551415E-6	-48.005191
1.55146E-6	-48.021683
1.551505E-6	-48.021683
1.55155E-6	-48.005191
1.551595E-6	-47.975117
1.55164E-6	-47.956087
1.551685E-6	-47.966951
1.55173E-6	-47.975117
1.551775E-6	-47.961515
1.55182E-6	-47.9588
1.551865E-6	-47.947956
1.55191E-6	-47.956087
1.551955E-6	-47.991495
1.552E-6	-48.013429
1.552045E-6	-48.016179
1.55209E-6	-48.013429
1.552135E-6	-47.999707
1.55218E-6	-48.013429
1.552225E-6	-48.024438
1.55227E-6	-48.027194
1.552315E-6	-48.013429
1.55236E-6	-47.975117
1.552405E-6	-47.953375
1.55245E-6	-47.939841
1.552495E-6	-47.950665
1.55254E-6	-47.9588
1.552585E-6	-47.939841
1.55263E-6	-47.947956
1.552675E-6	-47.93714
1.55272E-6	-47.964232
1.552765E-6	-47.980569
1.55281E-6	-48.007935
1.552855E-6	-47.991495
1.5529E-6	-48.002448
1.552945E-6	-48.007935
1.55299E-6	-48.007935
1.553035E-6	-48.016179
1.55308E-6	-48.016179
1.553125E-6	-47.977842
1.55317E-6	-47.9588
1.553215E-6	-47.94525
1.55326E-6	-47.939841
1.553305E-6	-47.94525
1.55335E-6	-47.956087
1.553395E-6	-47.923656
1.55344E-6	-47.931741
1.553485E-6	-47.93714
1.55353E-6	-47.956087
1.553575E-6	-47.972393
1.55362E-6	-47.986029
1.553665E-6	-48.013429
1.55371E-6	-48.005191
1.553755E-6	-48.005191
1.5538E-6	-48.005191
1.553845E-6	-47.994231
1.55389E-6	-47.986029
1.553935E-6	-47.977842
1.55398E-6	-47.956087
1.554025E-6	-47.94525
1.55407E-6	-47.947956
1.554115E-6	-47.93444
1.55416E-6	-47.93714
1.554205E-6	-47.929045
1.55425E-6	-47.92635
1.554295E-6	-47.942545
1.55434E-6	-47.961515
1.554385E-6	-47.969671
1.55443E-6	-47.977842
1.554475E-6	-47.977842
1.55452E-6	-47.991495
1.554565E-6	-47.996968
1.55461E-6	-47.994231
1.554655E-6	-47.986029
1.5547E-6	-47.972393
1.554745E-6	-47.9588
1.55479E-6	-47.961515
1.554835E-6	-47.939841
1.55488E-6	-47.92635
1.554925E-6	-47.92635
1.55497E-6	-47.920965
1.555015E-6	-47.9129
1.55506E-6	-47.920965
1.555105E-6	-47.93444
1.55515E-6	-47.93444
1.555195E-6	-47.966951
1.55524E-6	-47.972393
1.555285E-6	-47.986029
1.55533E-6	-47.991495
1.555375E-6	-48.002448
1.55542E-6	-47.988761
1.555465E-6	-47.983298
1.55551E-6	-47.975117
1.555555E-6	-47.975117
1.5556E-6	-47.9588
1.555645E-6	-47.939841
1.55569E-6	-47.929045
1.555735E-6	-47.92635
1.55578E-6	-47.920965
1.555825E-6	-47.92635
1.55587E-6	-47.939841
1.555915E-6	-47.93714
1.55596E-6	-47.953375
1.556005E-6	-47.966951
1.55605E-6	-47.977842
1.556095E-6	-48.005191
1.55614E-6	-48.01893
1.556185E-6	-48.01893
1.55623E-6	-48.007935
1.556275E-6	-48.002448
1.55632E-6	-48.007935
1.556365E-6	-47.999707
1.55641E-6	-47.986029
1.556455E-6	-47.969671
1.5565E-6	-47.942545
1.556545E-6	-47.931741
1.55659E-6	-47.942545
1.556635E-6	-47.950665
1.55668E-6	-47.961515
1.556725E-6	-47.953375
1.55677E-6	-47.983298
1.556815E-6	-47.996968
1.55686E-6	-48.021683
1.556905E-6	-48.052082
1.55695E-6	-48.052082
1.556995E-6	-48.035475
1.55704E-6	-48.035475
1.557085E-6	-48.046539
1.55713E-6	-48.06319
1.557175E-6	-48.04931
1.55722E-6	-48.032713
1.557265E-6	-48.005191
1.55731E-6	-47.999707
1.557355E-6	-48.002448
1.5574E-6	-48.01893
1.557445E-6	-48.029953
1.55749E-6	-48.032713
1.557535E-6	-48.035475
1.55758E-6	-48.046539
1.557625E-6	-48.082696
1.55767E-6	-48.124793
1.557715E-6	-48.136088
1.55776E-6	-48.133261
1.557805E-6	-48.127614
1.55785E-6	-48.124793
1.557895E-6	-48.144578
1.55794E-6	-48.150248
1.557985E-6	-48.147412
1.55803E-6	-48.119156
1.558075E-6	-48.099486
1.55812E-6	-48.099486
1.558165E-6	-48.116341
1.55821E-6	-48.124793
1.558255E-6	-48.133261
1.5583E-6	-48.138916
1.558345E-6	-48.138916
1.55839E-6	-48.16161
1.558435E-6	-48.198741
1.55848E-6	-48.247782
1.558525E-6	-48.256494
1.55857E-6	-48.253588
1.558615E-6	-48.279812
1.55866E-6	-48.279812
1.558705E-6	-48.294449
1.55875E-6	-48.31208
1.558795E-6	-48.285661
1.55884E-6	-48.256494
1.558885E-6	-48.241984
1.55893E-6	-48.253588
1.558975E-6	-48.27689
1.55902E-6	-48.294449
1.559065E-6	-48.306195
1.55911E-6	-48.297383
1.559155E-6	-48.303256
1.5592E-6	-48.329782
1.559245E-6	-48.395315
1.55929E-6	-48.431481
1.559335E-6	-48.428456
1.55938E-6	-48.434508
1.559425E-6	-48.458805
1.55947E-6	-48.480176
1.559515E-6	-48.483238
1.55956E-6	-48.513973
1.559605E-6	-48.495506
1.55965E-6	-48.461851
1.559695E-6	-48.452718
1.55974E-6	-48.4649
1.559785E-6	-48.474059
1.55983E-6	-48.495506
1.559875E-6	-48.501653
1.55992E-6	-48.523237
1.559965E-6	-48.544928
1.56001E-6	-48.572978
1.560055E-6	-48.639139
1.5601E-6	-48.658229
1.560145E-6	-48.661419
1.56019E-6	-48.677403
1.560235E-6	-48.696662
1.56028E-6	-48.722475
1.560325E-6	-48.728952
1.56037E-6	-48.732194
1.560415E-6	-48.732194
1.56046E-6	-48.71924
1.560505E-6	-48.725712
1.56055E-6	-48.728952
1.560595E-6	-48.738686
1.56064E-6	-48.771291
1.560685E-6	-48.758219
1.56073E-6	-48.774565
1.560775E-6	-48.797552
1.56082E-6	-48.840568
1.560865E-6	-48.890738
1.56091E-6	-48.91435
1.560955E-6	-48.941493
1.561E-6	-48.958544
1.561045E-6	-48.989406
1.56109E-6	-48.996295
1.561135E-6	-49.034376
1.56118E-6	-49.017025
1.561225E-6	-49.013563
1.56127E-6	-49.017025
1.561315E-6	-49.020489
1.56136E-6	-49.04482
1.561405E-6	-49.065783
1.56145E-6	-49.051796
1.561495E-6	-49.062282
1.56154E-6	-49.090369
1.561585E-6	-49.129288
1.56163E-6	-49.164974
1.561675E-6	-49.20457
1.56172E-6	-49.226321
1.561765E-6	-49.259153
1.56181E-6	-49.277501
1.561855E-6	-49.333014
1.5619E-6	-49.34047
1.561945E-6	-49.35542
1.56199E-6	-49.359166
1.562035E-6	-49.362914
1.56208E-6	-49.359166
1.562125E-6	-49.35542
1.56217E-6	-49.381707
1.562215E-6	-49.362914
1.56226E-6	-49.3968
1.562305E-6	-49.423339
1.56235E-6	-49.446217
1.562395E-6	-49.473061
1.56244E-6	-49.511699
1.562485E-6	-49.542859
1.56253E-6	-49.597934
1.562575E-6	-49.629721
1.56262E-6	-49.653715
1.562665E-6	-49.685915
1.56271E-6	-49.706162
1.562755E-6	-49.726504
1.5628E-6	-49.730584
1.562845E-6	-49.738755
1.56289E-6	-49.746941
1.562935E-6	-49.738755
1.56298E-6	-49.738755
1.563025E-6	-49.767475
1.56307E-6	-49.783973
1.563115E-6	-49.808837
1.56316E-6	-49.842212
1.563205E-6	-49.867413
1.56325E-6	-49.901244
1.563295E-6	-49.93534
1.56334E-6	-49.978339
1.563385E-6	-50.012613
1.56343E-6	-50.055949
1.563475E-6	-50.085524
