Wavelength (nm)	Power (dBm)
1.525E-6	-50.054629
1.525045E-6	-49.943906
1.52509E-6	-50.098388
1.525135E-6	-50.717578
1.52518E-6	-51.415831
1.525225E-6	-51.693472
1.52527E-6	-51.681942
1.525315E-6	-51.607105
1.52536E-6	-51.52489
1.525405E-6	-51.437546
1.52545E-6	-51.159414
1.525495E-6	-50.242925
1.52554E-6	-49.013563
1.525585E-6	-48.215987
1.52563E-6	-47.883456
1.525675E-6	-47.682756
1.52572E-6	-47.486051
1.525765E-6	-47.274622
1.52581E-6	-47.124222
1.525855E-6	-47.311881
1.5259E-6	-48.164455
1.525945E-6	-49.496202
1.52599E-6	-50.293742
1.526035E-6	-50.428718
1.52608E-6	-50.392914
1.526125E-6	-50.333421
1.52617E-6	-50.266874
1.526215E-6	-50.003476
1.52626E-6	-48.827287
1.526305E-6	-47.066374
1.52635E-6	-45.779028
1.526395E-6	-45.37602
1.52644E-6	-45.201369
1.526485E-6	-45.018273
1.52653E-6	-44.869156
1.526575E-6	-44.774254
1.52662E-6	-44.92414
1.526665E-6	-45.887171
1.52671E-6	-47.670039
1.526755E-6	-49.051796
1.5268E-6	-49.419538
1.526845E-6	-49.408154
1.52689E-6	-49.321855
1.526935E-6	-49.270153
1.52698E-6	-49.037854
1.527025E-6	-47.530093
1.52707E-6	-45.252012
1.527115E-6	-43.732491
1.52716E-6	-43.152444
1.527205E-6	-42.920043
1.52725E-6	-42.823295
1.527295E-6	-42.708352
1.52734E-6	-42.609026
1.527385E-6	-42.714839
1.52743E-6	-43.540867
1.527475E-6	-45.587763
1.52752E-6	-47.726276
1.527565E-6	-48.548036
1.52761E-6	-48.651856
1.527655E-6	-48.613816
1.5277E-6	-48.566729
1.527745E-6	-48.449678
1.52779E-6	-47.219327
1.527835E-6	-44.476969
1.52788E-6	-42.413152
1.527925E-6	-41.596429
1.52797E-6	-41.369152
1.528015E-6	-41.298888
1.52806E-6	-41.235512
1.528105E-6	-41.18216
1.52815E-6	-41.20732
1.528195E-6	-41.839577
1.52824E-6	-43.672391
1.528285E-6	-46.407338
1.52833E-6	-47.939841
1.528375E-6	-48.227522
1.52842E-6	-48.187282
1.528465E-6	-47.994231
1.52851E-6	-46.994045
1.528555E-6	-41.276106
1.5286E-6	-28.309136
1.528645E-6	-20.958256
1.52869E-6	-17.809397
1.528735E-6	-16.831912
1.52878E-6	-16.575773
1.528825E-6	-16.443569
1.52887E-6	-16.352614
1.528915E-6	-16.483969
1.52896E-6	-17.923656
1.529005E-6	-22.00246
1.52905E-6	-30.655015
1.529095E-6	-40.168701
1.52914E-6	-45.77082
1.529185E-6	-47.522722
1.52923E-6	-47.859513
1.529275E-6	-47.498241
1.52932E-6	-45.157002
1.529365E-6	-32.376216
1.52941E-6	-22.705922
1.529455E-6	-18.655041
1.5295E-6	-17.066374
1.529545E-6	-16.703988
1.52959E-6	-16.617428
1.529635E-6	-16.5267
1.52968E-6	-16.538427
1.529725E-6	-17.392133
1.52977E-6	-20.350336
1.529815E-6	-27.349462
1.52986E-6	-37.891466
1.529905E-6	-44.606729
1.52995E-6	-47.263044
1.529995E-6	-47.856861
1.53004E-6	-47.767637
1.530085E-6	-46.451236
1.53013E-6	-38.23041
1.530175E-6	-25.025175
1.53022E-6	-19.812995
1.530265E-6	-17.627077
1.53031E-6	-17.031155
1.530355E-6	-16.880343
1.5304E-6	-16.79646
1.530445E-6	-16.792308
1.53049E-6	-17.14893
1.530535E-6	-19.19013
1.53058E-6	-24.182778
1.530625E-6	-34.060497
1.53067E-6	-42.617746
1.530715E-6	-46.701955
1.53076E-6	-47.785858
1.530805E-6	-47.9129
1.53085E-6	-47.162466
1.530895E-6	-42.614573
1.53094E-6	-28.53252
1.530985E-6	-21.274941
1.53103E-6	-18.247782
1.531075E-6	-17.318903
1.53112E-6	-17.137681
1.531165E-6	-17.095202
1.53121E-6	-17.070797
1.531255E-6	-17.228494
1.5313E-6	-18.566729
1.531345E-6	-22.305488
1.53139E-6	-30.328266
1.531435E-6	-40.24982
1.53148E-6	-45.878756
1.531525E-6	-47.649768
1.53157E-6	-47.988761
1.531615E-6	-47.6675
1.53166E-6	-45.547072
1.531705E-6	-33.114022
1.53175E-6	-23.245883
1.531795E-6	-19.023957
1.53184E-6	-17.459355
1.531885E-6	-17.139929
1.53193E-6	-17.090754
1.531975E-6	-17.07301
1.53202E-6	-17.117508
1.532065E-6	-17.775437
1.53211E-6	-20.335767
1.532155E-6	-26.392173
1.5322E-6	-36.922901
1.532245E-6	-44.115042
1.53229E-6	-47.166988
1.532335E-6	-47.950665
1.53238E-6	-47.90217
1.532425E-6	-46.769543
1.53247E-6	-39.673812
1.532515E-6	-25.743028
1.53256E-6	-20.056828
1.532605E-6	-17.759852
1.53265E-6	-17.203331
1.532695E-6	-17.108572
1.53274E-6	-17.128704
1.532785E-6	-17.189666
1.53283E-6	-17.562181
1.532875E-6	-19.366666
1.53292E-6	-23.981572
1.532965E-6	-33.179452
1.53301E-6	-42.076784
1.533055E-6	-46.597542
1.5331E-6	-47.90485
1.533145E-6	-48.071539
1.53319E-6	-47.597004
1.533235E-6	-44.73144
1.53328E-6	-31.320613
1.533325E-6	-22.335872
1.53337E-6	-18.579235
1.533415E-6	-17.307206
1.53346E-6	-17.142177
1.533505E-6	-17.164726
1.53355E-6	-17.230789
1.533595E-6	-17.389752
1.53364E-6	-18.365404
1.533685E-6	-21.500894
1.53373E-6	-28.71924
1.533775E-6	-39.139963
1.53382E-6	-45.318004
1.533865E-6	-47.644716
1.53391E-6	-48.167302
1.533955E-6	-47.994231
1.534E-6	-46.615435
1.534045E-6	-37.251497
1.53409E-6	-24.87983
1.534135E-6	-19.633711
1.53418E-6	-17.559704
1.534225E-6	-17.108572
1.53427E-6	-17.099654
1.534315E-6	-17.198771
1.53436E-6	-17.311881
1.534405E-6	-17.791078
1.53445E-6	-19.854795
1.534495E-6	-24.762535
1.53454E-6	-34.375882
1.534585E-6	-42.908997
1.53463E-6	-47.033348
1.534675E-6	-48.141746
1.53472E-6	-48.259402
1.534765E-6	-47.599502
1.53481E-6	-43.898724
1.534855E-6	-29.657727
1.5349E-6	-21.446626
1.534945E-6	-18.144578
1.53499E-6	-17.113037
1.535035E-6	-17.007107
1.53508E-6	-17.095202
1.535125E-6	-17.20105
1.53517E-6	-17.442452
1.535215E-6	-18.687022
1.53526E-6	-22.215593
1.535305E-6	-29.694003
1.53535E-6	-39.875846
1.535395E-6	-45.984272
1.53544E-6	-47.988761
1.535485E-6	-48.398317
1.53553E-6	-48.158766
1.535575E-6	-46.447401
1.53562E-6	-36.487837
1.535665E-6	-24.506288
1.53571E-6	-19.389247
1.535755E-6	-17.309543
1.5358E-6	-16.912222
1.535845E-6	-16.948637
1.53589E-6	-17.002748
1.535935E-6	-17.10411
1.53598E-6	-17.670039
1.536025E-6	-19.888526
1.53607E-6	-25.380515
1.536115E-6	-35.523769
1.53616E-6	-43.560541
1.536205E-6	-47.363639
1.53625E-6	-48.341624
1.536295E-6	-48.428456
1.53634E-6	-47.652297
1.536385E-6	-43.583276
1.53643E-6	-29.321855
1.536475E-6	-21.238977
1.53652E-6	-17.93714
1.536565E-6	-16.957249
1.53661E-6	-16.888822
1.536655E-6	-16.93575
1.5367E-6	-16.974526
1.536745E-6	-17.160207
1.53679E-6	-18.389316
1.536835E-6	-21.92668
1.53688E-6	-29.734667
1.536925E-6	-39.875846
1.53697E-6	-45.99462
1.537015E-6	-48.029953
1.53706E-6	-48.480176
1.537105E-6	-48.210231
1.53715E-6	-46.556077
1.537195E-6	-36.29672
1.53724E-6	-24.235435
1.537285E-6	-19.172146
1.53733E-6	-17.144427
1.537375E-6	-16.693833
1.53742E-6	-16.677636
1.537465E-6	-16.710091
1.53751E-6	-16.734593
1.537555E-6	-17.20105
1.5376E-6	-19.404366
1.537645E-6	-24.787311
1.53769E-6	-34.936303
1.537735E-6	-43.21846
1.53778E-6	-47.189666
1.537825E-6	-48.335699
1.53787E-6	-48.45576
1.537915E-6	-47.81202
1.53796E-6	-44.24235
1.538005E-6	-30.271957
1.53805E-6	-21.527359
1.538095E-6	-18.007935
1.53814E-6	-16.878226
1.538185E-6	-16.683703
1.53823E-6	-16.671577
1.538275E-6	-16.667543
1.53832E-6	-16.771607
1.538365E-6	-17.827793
1.53841E-6	-21.226287
1.538455E-6	-28.9279
1.5385E-6	-39.473061
1.538545E-6	-45.480601
1.53859E-6	-47.880789
1.538635E-6	-48.431481
1.53868E-6	-48.256494
1.538725E-6	-46.865546
1.53877E-6	-38.392314
1.538815E-6	-25.15131
1.53886E-6	-19.570309
1.538905E-6	-17.349462
1.53895E-6	-16.798537
1.538995E-6	-16.710091
1.53904E-6	-16.683703
1.539085E-6	-16.66956
1.53913E-6	-17.015836
1.539175E-6	-18.972234
1.53922E-6	-24.009908
1.539265E-6	-33.758211
1.53931E-6	-42.562551
1.539355E-6	-46.91009
1.5394E-6	-48.204482
1.539445E-6	-48.380334
1.53949E-6	-47.804155
1.539535E-6	-44.78339
1.53958E-6	-30.998514
1.539625E-6	-21.92871
1.53967E-6	-18.244882
1.539715E-6	-16.952941
1.53976E-6	-16.699923
1.539805E-6	-16.629403
1.53985E-6	-16.601512
1.539895E-6	-16.639407
1.53994E-6	-17.498241
1.539985E-6	-20.605307
1.54003E-6	-27.975117
1.540075E-6	-38.748442
1.54012E-6	-44.994891
1.540165E-6	-47.627077
1.54021E-6	-48.288588
1.540255E-6	-48.207355
1.5403E-6	-47.119745
1.540345E-6	-40.334828
1.54039E-6	-26.124322
1.540435E-6	-20.056828
1.54048E-6	-17.498241
1.540525E-6	-16.790233
1.54057E-6	-16.647427
1.540615E-6	-16.601512
1.54066E-6	-16.585655
1.540705E-6	-16.813107
1.54075E-6	-18.513973
1.540795E-6	-22.931969
1.54084E-6	-31.965429
1.540885E-6	-41.425469
1.54093E-6	-46.362001
1.540975E-6	-47.983298
1.54102E-6	-48.247782
1.541065E-6	-47.880789
1.54111E-6	-45.73977
1.541155E-6	-33.5635
1.5412E-6	-23.262421
1.541245E-6	-18.890738
1.54129E-6	-17.233085
1.541335E-6	-16.825635
1.54138E-6	-16.736641
1.541425E-6	-16.683703
1.54147E-6	-16.703988
1.541515E-6	-17.384992
1.54156E-6	-20.02046
1.541605E-6	-26.27088
1.54165E-6	-36.653452
1.541695E-6	-44.052761
1.54174E-6	-47.279262
1.541785E-6	-48.091083
1.54183E-6	-48.113527
1.541875E-6	-47.325936
1.54192E-6	-42.725401
1.541965E-6	-28.326827
1.54201E-6	-20.937188
1.542055E-6	-17.950665
1.5421E-6	-16.991872
1.542145E-6	-16.821455
1.54219E-6	-16.757175
1.542235E-6	-16.728455
1.54228E-6	-16.85922
1.542325E-6	-18.038238
1.54237E-6	-21.687703
1.542415E-6	-29.742846
1.54246E-6	-39.496202
1.542505E-6	-45.50059
1.54255E-6	-47.637147
1.542595E-6	-48.088285
1.54264E-6	-47.907532
1.542685E-6	-46.455074
1.54273E-6	-37.015836
1.542775E-6	-24.77295
1.54282E-6	-19.578184
1.542865E-6	-17.510464
1.54291E-6	-17.002748
1.542955E-6	-16.90157
1.543E-6	-16.863437
1.543045E-6	-16.842395
1.54309E-6	-17.121983
1.543135E-6	-18.972234
1.54318E-6	-23.675427
1.543225E-6	-33.381873
1.54327E-6	-42.134615
1.543315E-6	-46.567884
1.54336E-6	-47.825161
1.543405E-6	-48.010681
1.54345E-6	-47.522722
1.543495E-6	-44.756039
1.54354E-6	-31.67555
1.543585E-6	-22.441251
1.54363E-6	-18.507809
1.543675E-6	-17.115272
1.54372E-6	-16.85922
1.543765E-6	-16.792308
1.54381E-6	-16.759234
1.543855E-6	-16.798537
1.5439E-6	-17.469044
1.543945E-6	-20.214543
1.54399E-6	-26.474316
1.544035E-6	-37.057543
1.54408E-6	-44.030732
1.544125E-6	-47.164726
1.54417E-6	-47.907532
1.544215E-6	-47.9129
1.54426E-6	-47.037737
1.544305E-6	-42.037727
1.54435E-6	-27.632109
1.544395E-6	-20.701725
1.54444E-6	-17.93444
1.544485E-6	-17.110804
1.54453E-6	-16.968039
1.544575E-6	-16.948637
1.54462E-6	-16.918626
1.544665E-6	-17.024583
1.54471E-6	-18.164455
1.544755E-6	-21.774397
1.5448E-6	-29.694003
1.544845E-6	-39.812995
1.54489E-6	-45.565805
1.544935E-6	-47.527635
1.54498E-6	-47.9588
1.545025E-6	-47.739159
1.54507E-6	-46.265363
1.545115E-6	-36.226937
1.54516E-6	-24.517335
1.545205E-6	-19.480761
1.54525E-6	-17.476325
1.545295E-6	-17.015836
1.54534E-6	-16.937895
1.545385E-6	-16.91009
1.54543E-6	-16.90157
1.545475E-6	-17.272304
1.54552E-6	-19.172146
1.545565E-6	-23.911532
1.54561E-6	-33.469805
1.545655E-6	-42.2541
1.5457E-6	-46.524748
1.545745E-6	-47.75208
1.54579E-6	-47.947956
1.545835E-6	-47.537477
1.54588E-6	-45.233133
1.545925E-6	-32.625688
1.54597E-6	-22.739251
1.546015E-6	-18.693447
1.54606E-6	-17.281584
1.546105E-6	-17.022395
1.54615E-6	-16.972363
1.546195E-6	-16.950788
1.54624E-6	-16.976691
1.546285E-6	-17.559704
1.54633E-6	-20.025699
1.546375E-6	-26.062494
1.54642E-6	-36.304131
1.546465E-6	-43.798639
1.54651E-6	-47.044329
1.546555E-6	-47.859513
1.5466E-6	-47.907532
1.546645E-6	-47.191941
1.54669E-6	-42.800889
1.546735E-6	-28.924509
1.54678E-6	-21.332992
1.546825E-6	-18.259402
1.54687E-6	-17.276942
1.546915E-6	-17.115272
1.54696E-6	-17.079656
1.547005E-6	-17.064165
1.54705E-6	-17.180581
1.547095E-6	-18.164455
1.54714E-6	-21.354296
1.547185E-6	-28.722475
1.54723E-6	-39.147094
1.547275E-6	-45.073793
1.54732E-6	-47.399286
1.547365E-6	-47.92635
1.54741E-6	-47.817271
1.547455E-6	-46.699923
1.5475E-6	-39.909743
1.547545E-6	-26.058987
1.54759E-6	-20.104167
1.547635E-6	-17.672579
1.54768E-6	-17.068585
1.547725E-6	-16.942188
1.54777E-6	-16.920763
1.547815E-6	-16.918626
1.54786E-6	-17.101882
1.547905E-6	-18.501653
1.54795E-6	-22.478747
1.547995E-6	-31.099145
1.54804E-6	-40.742239
1.548085E-6	-45.907433
1.54813E-6	-47.602002
1.548175E-6	-47.929045
1.54822E-6	-47.682756
1.548265E-6	-46.022337
1.54831E-6	-35.275361
1.548355E-6	-24.171415
1.5484E-6	-19.400581
1.548445E-6	-17.542406
1.54849E-6	-17.110804
1.548535E-6	-17.007107
1.54858E-6	-17.002748
1.548625E-6	-17.031155
1.54867E-6	-17.396901
1.548715E-6	-19.336741
1.54876E-6	-24.32856
1.548805E-6	-33.944795
1.54885E-6	-42.451168
1.548895E-6	-46.613443
1.54894E-6	-47.746907
1.548985E-6	-47.920965
1.54903E-6	-47.490923
1.549075E-6	-45.0515
1.54912E-6	-32.619333
1.549165E-6	-22.904756
1.54921E-6	-18.784402
1.549255E-6	-17.265357
1.5493E-6	-16.970201
1.549345E-6	-16.92718
1.54939E-6	-16.92504
1.549435E-6	-16.974526
1.54948E-6	-17.559704
1.549525E-6	-19.986991
1.54957E-6	-25.704092
1.549615E-6	-35.932895
1.54966E-6	-43.494011
1.549705E-6	-46.912222
1.54975E-6	-47.79369
1.549795E-6	-47.856861
1.54984E-6	-47.20105
1.549885E-6	-43.695721
1.54993E-6	-29.884296
1.549975E-6	-21.665979
1.55002E-6	-18.31208
1.550065E-6	-17.242281
1.55011E-6	-17.035542
1.550155E-6	-16.991872
1.5502E-6	-16.996219
1.550245E-6	-17.026773
1.55029E-6	-17.700623
1.550335E-6	-20.430156
1.55038E-6	-26.96372
1.550425E-6	-37.670039
1.55047E-6	-44.391373
1.550515E-6	-47.124222
1.55056E-6	-47.796304
1.550605E-6	-47.772835
1.55065E-6	-46.899443
1.550695E-6	-41.747037
1.55074E-6	-27.408842
1.550785E-6	-20.809742
1.55083E-6	-17.966951
1.550875E-6	-17.135435
1.55092E-6	-17.000571
1.550965E-6	-16.96372
1.55101E-6	-16.944337
1.551055E-6	-17.044329
1.5511E-6	-18.041003
1.551145E-6	-21.366771
1.55119E-6	-29.006647
1.551235E-6	-39.423339
1.55128E-6	-45.135695
1.551325E-6	-47.311881
1.55137E-6	-47.798919
1.551415E-6	-47.695511
1.55146E-6	-46.613443
1.551505E-6	-40.145286
1.55155E-6	-26.422557
1.551595E-6	-20.298392
1.55164E-6	-17.825161
1.551685E-6	-17.151183
1.55173E-6	-17.037737
1.551775E-6	-17.009287
1.55182E-6	-16.985359
1.551865E-6	-17.137681
1.55191E-6	-18.45576
1.551955E-6	-22.265793
1.552E-6	-30.119764
1.552045E-6	-39.93962
1.55209E-6	-45.62408
1.552135E-6	-47.404061
1.55218E-6	-47.767637
1.552225E-6	-47.56962
1.55227E-6	-46.11366
1.552315E-6	-36.643415
1.55236E-6	-24.715976
1.552405E-6	-19.637705
1.55245E-6	-17.557229
1.552495E-6	-17.110804
1.55254E-6	-17.024583
1.552585E-6	-16.983191
1.55263E-6	-16.981023
1.552675E-6	-17.242281
1.55272E-6	-18.887375
1.552765E-6	-23.368647
1.55281E-6	-32.35077
1.552855E-6	-41.345407
1.5529E-6	-46.103025
1.552945E-6	-47.488487
1.55299E-6	-47.739159
1.553035E-6	-47.437635
1.55308E-6	-45.619325
1.553125E-6	-34.613006
1.55317E-6	-23.660268
1.553215E-6	-19.069287
1.55326E-6	-17.358908
1.553305E-6	-17.000571
1.55335E-6	-16.903698
1.553395E-6	-16.850799
1.55344E-6	-16.861328
1.553485E-6	-17.244583
1.55353E-6	-19.186527
1.553575E-6	-24.024145
1.55362E-6	-33.359224
1.553665E-6	-42.078185
1.55371E-6	-46.254349
1.553755E-6	-47.510464
1.5538E-6	-47.700623
1.553845E-6	-47.328283
1.55389E-6	-45.149888
1.553935E-6	-32.89798
1.55398E-6	-22.993828
1.554025E-6	-18.92112
1.55407E-6	-17.435228
1.554115E-6	-17.086311
1.55416E-6	-17.013652
1.554205E-6	-16.952941
1.55425E-6	-16.968039
1.554295E-6	-17.399286
1.55434E-6	-19.488475
1.554385E-6	-24.769042
1.55443E-6	-34.523483
1.554475E-6	-42.750691
1.55452E-6	-46.487837
1.554565E-6	-47.525177
1.55461E-6	-47.654827
1.554655E-6	-47.176045
1.5547E-6	-44.438182
1.554745E-6	-31.303577
1.55479E-6	-22.327699
1.554835E-6	-18.680607
1.55488E-6	-17.401673
1.554925E-6	-17.10411
1.55497E-6	-17.037737
1.555015E-6	-17.015836
1.55506E-6	-17.044329
1.555105E-6	-17.525177
1.55515E-6	-19.812995
1.555195E-6	-25.391022
1.55524E-6	-35.605094
1.555285E-6	-43.214816
1.55533E-6	-46.613443
1.555375E-6	-47.530093
1.55542E-6	-47.592012
1.555465E-6	-46.987529
1.55551E-6	-43.491099
1.555555E-6	-29.913998
1.5556E-6	-21.726954
1.555645E-6	-18.392314
1.55569E-6	-17.304871
1.555735E-6	-17.079656
1.55578E-6	-17.037737
1.555825E-6	-17.022395
1.55587E-6	-17.055338
1.555915E-6	-17.579558
1.55596E-6	-19.965395
1.556005E-6	-25.958508
1.55605E-6	-36.267201
1.556095E-6	-43.580304
1.55614E-6	-46.708056
1.556185E-6	-47.520267
1.55623E-6	-47.567139
1.556275E-6	-46.952941
1.55632E-6	-43.473669
1.556365E-6	-29.601894
1.55641E-6	-21.583903
1.556455E-6	-18.210231
1.5565E-6	-17.10634
1.556545E-6	-16.882461
1.55659E-6	-16.852903
1.556635E-6	-16.848697
1.55668E-6	-16.90157
1.556725E-6	-17.544873
1.55677E-6	-20.148431
1.556815E-6	-26.470461
1.55686E-6	-36.744843
1.556905E-6	-43.752024
1.55695E-6	-46.763355
1.556995E-6	-47.498241
1.55704E-6	-47.544873
1.557085E-6	-46.914356
1.55713E-6	-43.263341
1.557175E-6	-29.531148
1.55722E-6	-21.438756
1.557265E-6	-18.17015
1.55731E-6	-17.113037
1.557355E-6	-16.88458
1.5574E-6	-16.846595
1.557445E-6	-16.865546
1.55749E-6	-16.922901
1.557535E-6	-17.62205
1.55758E-6	-20.358819
1.557625E-6	-26.811023
1.55767E-6	-37.2262
1.557715E-6	-43.956659
1.55776E-6	-46.815193
1.557805E-6	-47.522722
1.55785E-6	-47.557229
1.557895E-6	-46.922901
1.55794E-6	-42.961929
1.557985E-6	-29.255493
1.55803E-6	-21.486805
1.558075E-6	-18.141746
1.55812E-6	-17.031155
1.558165E-6	-16.821455
1.55821E-6	-16.790233
1.558255E-6	-16.794383
1.5583E-6	-16.867657
1.558345E-6	-17.607005
1.55839E-6	-20.458057
1.558435E-6	-27.050931
1.55848E-6	-37.428016
1.558525E-6	-44.080454
1.55857E-6	-46.90157
1.558615E-6	-47.56962
1.55866E-6	-47.597004
1.558705E-6	-46.950788
1.55875E-6	-42.85838
1.558795E-6	-29.143527
1.55884E-6	-21.446626
1.558885E-6	-18.215987
1.55893E-6	-17.180581
1.558975E-6	-17.020208
1.55902E-6	-17.009287
1.559065E-6	-17.028963
1.55911E-6	-17.110804
1.559155E-6	-17.822529
1.5592E-6	-20.494404
1.559245E-6	-26.92504
1.55929E-6	-37.382615
1.559335E-6	-44.148778
1.55938E-6	-46.985359
1.559425E-6	-47.662426
1.55947E-6	-47.690404
1.559515E-6	-46.987529
1.55956E-6	-42.959353
1.559605E-6	-28.958544
1.55965E-6	-21.272612
1.559695E-6	-18.16161
1.55974E-6	-17.194216
1.559785E-6	-17.057543
1.55983E-6	-17.07301
1.559875E-6	-17.088532
1.55992E-6	-17.180581
1.559965E-6	-17.92635
1.56001E-6	-20.677292
1.560055E-6	-27.191941
1.5601E-6	-37.564659
1.560145E-6	-44.31329
1.56019E-6	-47.068585
1.560235E-6	-47.775437
1.56028E-6	-47.81202
1.560325E-6	-47.198771
1.56037E-6	-43.615107
1.560415E-6	-29.800533
1.56046E-6	-21.5422
1.560505E-6	-18.144578
1.56055E-6	-17.077439
1.560595E-6	-16.92718
1.56064E-6	-16.916491
1.560685E-6	-16.972363
1.56073E-6	-17.075224
1.560775E-6	-17.814645
1.56082E-6	-20.616304
1.560865E-6	-27.075224
1.56091E-6	-37.637147
1.560955E-6	-44.354523
1.561E-6	-47.14893
1.561045E-6	-47.899492
1.56109E-6	-47.939841
1.561135E-6	-47.330631
1.56118E-6	-43.77061
1.561225E-6	-29.995659
1.56127E-6	-21.485582
1.561315E-6	-18.091083
1.56136E-6	-17.035542
1.561405E-6	-16.867657
1.56145E-6	-16.890944
1.561495E-6	-16.93575
1.56154E-6	-17.035542
1.561585E-6	-17.705742
1.56163E-6	-20.238335
1.561675E-6	-26.29672
1.56172E-6	-36.609463
1.561765E-6	-43.965308
1.56181E-6	-47.142177
1.561855E-6	-48.013429
1.5619E-6	-48.116341
1.561945E-6	-47.617029
1.56199E-6	-44.87983
1.562035E-6	-31.687703
1.56208E-6	-22.172408
1.562125E-6	-18.38632
1.56217E-6	-17.050931
1.562215E-6	-16.850799
1.56226E-6	-16.865546
1.562305E-6	-16.933606
1.56235E-6	-17.037737
1.562395E-6	-17.517814
1.56244E-6	-19.685915
1.562485E-6	-25.057062
1.56253E-6	-34.782084
1.562575E-6	-42.965367
1.56262E-6	-46.9897
1.562665E-6	-48.121974
1.56271E-6	-48.27689
1.562755E-6	-47.867479
1.5628E-6	-45.472938
1.562845E-6	-33.049563
1.56289E-6	-22.6946
1.562935E-6	-18.492436
1.56298E-6	-16.996219
1.563025E-6	-16.724367
1.56307E-6	-16.728455
1.563115E-6	-16.806857
1.56316E-6	-16.931463
1.563205E-6	-17.363639
1.56325E-6	-19.404366
1.563295E-6	-24.453897
1.56334E-6	-34.245812
1.563385E-6	-42.638426
1.56343E-6	-46.952941
1.563475E-6	-48.253588
