Wavelength (nm)	Power (dBm)
1.525E-6	-61.437546
1.525045E-6	-61.435128
1.52509E-6	-62.04885
1.525135E-6	-64.064924
1.52518E-6	-67.977842
1.525225E-6	-71.196438
1.52527E-6	-72.914092
1.525315E-6	-72.774483
1.52536E-6	-72.836627
1.525405E-6	-72.876029
1.52545E-6	-70.925886
1.525495E-6	-65.757719
1.52554E-6	-62.272384
1.525585E-6	-60.691019
1.52563E-6	-60.258108
1.525675E-6	-60.08331
1.52572E-6	-59.909743
1.525765E-6	-59.722428
1.52581E-6	-59.637705
1.525855E-6	-60.03007
1.5259E-6	-61.705033
1.525945E-6	-65.434821
1.52599E-6	-69.617774
1.526035E-6	-72.230084
1.52608E-6	-72.690563
1.526125E-6	-72.805858
1.52617E-6	-72.602695
1.526215E-6	-71.315319
1.52626E-6	-65.654311
1.526305E-6	-61.530447
1.52635E-6	-59.515582
1.526395E-6	-58.85389
1.52644E-6	-58.677403
1.526485E-6	-58.566729
1.52653E-6	-58.474059
1.526575E-6	-58.437538
1.52662E-6	-58.655041
1.526665E-6	-59.901244
1.52671E-6	-63.07065
1.526755E-6	-68.021683
1.5268E-6	-71.355483
1.526845E-6	-72.559418
1.52689E-6	-72.457281
1.526935E-6	-72.509597
1.52698E-6	-71.778973
1.527025E-6	-66.118988
1.52707E-6	-61.163953
1.527115E-6	-58.607508
1.52716E-6	-57.664962
1.527205E-6	-57.435228
1.52725E-6	-57.354183
1.527295E-6	-57.293212
1.52734E-6	-57.228494
1.527385E-6	-57.373117
1.52743E-6	-58.347557
1.527475E-6	-60.932879
1.52752E-6	-65.749551
1.527565E-6	-70.07977
1.52761E-6	-72.357491
1.527655E-6	-72.326215
1.5277E-6	-72.515794
1.527745E-6	-72.148838
1.52779E-6	-67.13319
1.527835E-6	-61.389438
1.52788E-6	-57.972393
1.527925E-6	-56.784016
1.52797E-6	-56.476245
1.528015E-6	-56.390281
1.52806E-6	-56.332036
1.528105E-6	-56.302277
1.52815E-6	-56.326441
1.528195E-6	-56.983191
1.52824E-6	-59.164974
1.528285E-6	-63.223018
1.52833E-6	-68.820662
1.528375E-6	-71.363203
1.52842E-6	-71.852864
1.528465E-6	-70.908721
1.52851E-6	-67.274622
1.528555E-6	-58.910969
1.5286E-6	-42.228633
1.528645E-6	-35.511392
1.52869E-6	-32.337359
1.528735E-6	-31.311206
1.52878E-6	-31.033085
1.528825E-6	-30.926424
1.52887E-6	-30.818123
1.528915E-6	-30.924274
1.52896E-6	-32.315839
1.529005E-6	-36.320853
1.52905E-6	-44.438182
1.529095E-6	-56.188849
1.52914E-6	-62.61378
1.529185E-6	-67.939841
1.52923E-6	-69.952488
1.529275E-6	-68.642315
1.52932E-6	-62.69864
1.529365E-6	-47.78325
1.52941E-6	-36.844495
1.529455E-6	-33.006827
1.5295E-6	-31.427882
1.529545E-6	-31.035289
1.52959E-6	-30.904975
1.529635E-6	-30.813931
1.52968E-6	-30.810789
1.529725E-6	-31.602706
1.52977E-6	-34.470885
1.529815E-6	-40.772227
1.52986E-6	-51.713401
1.529905E-6	-61.553986
1.52995E-6	-66.567884
1.529995E-6	-69.531148
1.53004E-6	-69.233596
1.530085E-6	-64.988038
1.53013E-6	-52.962788
1.530175E-6	-38.867253
1.53022E-6	-33.962063
1.530265E-6	-31.705676
1.53031E-6	-31.080725
1.530355E-6	-30.94366
1.5304E-6	-30.858685
1.530445E-6	-30.834408
1.53049E-6	-31.123264
1.530535E-6	-33.085648
1.53058E-6	-38.088285
1.530625E-6	-47.281584
1.53067E-6	-58.467951
1.530715E-6	-64.424928
1.53076E-6	-68.884015
1.530805E-6	-69.590023
1.53085E-6	-66.649435
1.530895E-6	-58.709549
1.53094E-6	-41.739252
1.530985E-6	-35.191311
1.53103E-6	-32.181011
1.531075E-6	-31.251125
1.53112E-6	-31.019883
1.531165E-6	-30.938266
1.53121E-6	-30.906045
1.531255E-6	-31.038046
1.5313E-6	-32.303273
1.531345E-6	-35.968795
1.53139E-6	-43.674415
1.531435E-6	-55.676722
1.53148E-6	-62.321765
1.531525E-6	-67.677665
1.53157E-6	-69.75925
1.531615E-6	-68.341624
1.53166E-6	-62.646407
1.531705E-6	-47.969671
1.53175E-6	-36.771607
1.531795E-6	-32.92515
1.53184E-6	-31.274359
1.531885E-6	-30.922663
1.53193E-6	-30.862391
1.531975E-6	-30.82337
1.53202E-6	-30.855511
1.532065E-6	-31.477641
1.53211E-6	-34.009908
1.532155E-6	-39.503944
1.5322E-6	-50.112627
1.532245E-6	-60.323116
1.53229E-6	-65.707323
1.532335E-6	-69.370422
1.53238E-6	-69.259153
1.532425E-6	-65.37153
1.53247E-6	-54.185055
1.532515E-6	-39.28118
1.53256E-6	-33.87534
1.532605E-6	-31.54902
1.53265E-6	-30.962591
1.532695E-6	-30.849697
1.53274E-6	-30.847057
1.532785E-6	-30.908185
1.53283E-6	-31.254602
1.532875E-6	-32.999023
1.53292E-6	-37.493361
1.532965E-6	-46.161846
1.53301E-6	-57.639669
1.533055E-6	-63.646168
1.5331E-6	-68.579235
1.533145E-6	-69.854795
1.53319E-6	-67.708303
1.533235E-6	-61.359044
1.53328E-6	-44.264322
1.533325E-6	-35.915904
1.53337E-6	-32.383728
1.533415E-6	-31.100823
1.53346E-6	-30.880438
1.533505E-6	-30.888424
1.53355E-6	-30.997968
1.533595E-6	-31.118205
1.53364E-6	-32.072582
1.533685E-6	-35.145625
1.53373E-6	-41.488028
1.533775E-6	-52.329926
1.53382E-6	-62.133195
1.533865E-6	-66.857113
1.53391E-6	-69.846402
1.533955E-6	-69.006647
1.534E-6	-64.602968
1.534045E-6	-52.343314
1.53409E-6	-38.428456
1.534135E-6	-33.458235
1.53418E-6	-31.336536
1.534225E-6	-30.878843
1.53427E-6	-30.875122
1.534315E-6	-30.940423
1.53436E-6	-31.076271
1.534405E-6	-31.561446
1.53445E-6	-33.548726
1.534495E-6	-38.368386
1.53454E-6	-47.6675
1.534585E-6	-58.566729
1.53463E-6	-64.548166
1.534675E-6	-68.820662
1.53472E-6	-69.875846
1.534765E-6	-67.077439
1.53481E-6	-59.905491
1.534855E-6	-42.772838
1.5349E-6	-35.312097
1.534945E-6	-31.979792
1.53499E-6	-30.942581
1.535035E-6	-30.838093
1.53508E-6	-30.90658
1.535125E-6	-31.023729
1.53517E-6	-31.278437
1.535215E-6	-32.50805
1.53526E-6	-35.909126
1.535305E-6	-42.985184
1.53535E-6	-55.069604
1.535395E-6	-61.806535
1.53544E-6	-67.609509
1.535485E-6	-69.821323
1.53553E-6	-69.086848
1.535575E-6	-64.146521
1.53562E-6	-51.367961
1.535665E-6	-38.057633
1.53571E-6	-33.296614
1.535755E-6	-31.205027
1.5358E-6	-30.790423
1.535845E-6	-30.847585
1.53589E-6	-30.92965
1.535935E-6	-31.05241
1.53598E-6	-31.550881
1.536025E-6	-33.73865
1.53607E-6	-39.100949
1.536115E-6	-48.843895
1.53616E-6	-59.673812
1.536205E-6	-65.185574
1.53625E-6	-69.172146
1.536295E-6	-69.943906
1.53634E-6	-67.10634
1.536385E-6	-59.722428
1.53643E-6	-42.629665
1.536475E-6	-35.285616
1.53652E-6	-32.008663
1.536565E-6	-31.018235
1.53661E-6	-30.887358
1.536655E-6	-30.946899
1.5367E-6	-31.028129
1.536745E-6	-31.198727
1.53679E-6	-32.397283
1.536835E-6	-35.870357
1.53688E-6	-43.250471
1.536925E-6	-55.28855
1.53697E-6	-61.978422
1.537015E-6	-67.639669
1.53706E-6	-69.812995
1.537105E-6	-69.211808
1.53715E-6	-64.418917
1.537195E-6	-51.790764
1.53724E-6	-37.977842
1.537285E-6	-33.382819
1.53733E-6	-31.318848
1.537375E-6	-30.862921
1.53742E-6	-30.832303
1.537465E-6	-30.838093
1.53751E-6	-30.897492
1.537555E-6	-31.362015
1.5376E-6	-33.505678
1.537645E-6	-38.850556
1.53769E-6	-48.428456
1.537735E-6	-59.215432
1.53778E-6	-64.845236
1.537825E-6	-69.072794
1.53787E-6	-69.982663
1.537915E-6	-67.562181
1.53796E-6	-60.797723
1.538005E-6	-43.755116
1.53805E-6	-35.885487
1.538095E-6	-32.320283
1.53814E-6	-31.11259
1.538185E-6	-30.942581
1.53823E-6	-30.916222
1.538275E-6	-30.903905
1.53832E-6	-31.010007
1.538365E-6	-32.060002
1.53841E-6	-35.395532
1.538455E-6	-42.156681
1.5385E-6	-54.321505
1.538545E-6	-62.544568
1.53859E-6	-67.2262
1.538635E-6	-69.767475
1.53868E-6	-69.469216
1.538725E-6	-65.21145
1.53877E-6	-53.362991
1.538815E-6	-39.086848
1.53886E-6	-33.956659
1.538905E-6	-31.658973
1.53895E-6	-31.109786
1.538995E-6	-31.004531
1.53904E-6	-30.956091
1.539085E-6	-30.950141
1.53913E-6	-31.280186
1.539175E-6	-33.144374
1.53922E-6	-38.155925
1.539265E-6	-47.549811
1.53931E-6	-58.517059
1.539355E-6	-64.500164
1.5394E-6	-68.797552
1.539445E-6	-70.046281
1.53949E-6	-68.057633
1.539535E-6	-61.510108
1.53958E-6	-44.317983
1.539625E-6	-36.017127
1.53967E-6	-32.530546
1.539715E-6	-31.222257
1.53976E-6	-30.968015
1.539805E-6	-30.888424
1.53985E-6	-30.850754
1.539895E-6	-30.89856
1.53994E-6	-31.719849
1.539985E-6	-34.743075
1.54003E-6	-41.244179
1.540075E-6	-52.521223
1.54012E-6	-61.780936
1.540165E-6	-66.601512
1.54021E-6	-69.706162
1.540255E-6	-69.484616
1.5403E-6	-65.828606
1.540345E-6	-54.992148
1.54039E-6	-40.030508
1.540435E-6	-34.377071
1.54048E-6	-31.792076
1.540525E-6	-31.068488
1.54057E-6	-30.883098
1.540615E-6	-30.8302
1.54066E-6	-30.786257
1.540705E-6	-31.040805
1.54075E-6	-32.67365
1.540795E-6	-36.961562
1.54084E-6	-45.612995
1.540885E-6	-57.203331
1.54093E-6	-63.444774
1.540975E-6	-68.309136
1.54102E-6	-69.867413
1.541065E-6	-68.840568
1.54111E-6	-63.215727
1.541155E-6	-48.787685
1.5412E-6	-37.219327
1.541245E-6	-33.143478
1.54129E-6	-31.417637
1.541335E-6	-31.059056
1.54138E-6	-30.949601
1.541425E-6	-30.88576
1.54147E-6	-30.914078
1.541515E-6	-31.544059
1.54156E-6	-34.144265
1.541605E-6	-39.722428
1.54165E-6	-50.401004
1.541695E-6	-60.539901
1.54174E-6	-65.700863
1.541785E-6	-69.314431
1.54183E-6	-69.854795
1.541875E-6	-66.781945
1.54192E-6	-58.768019
1.541965E-6	-41.932775
1.54201E-6	-35.176982
1.542055E-6	-32.135325
1.5421E-6	-31.195294
1.542145E-6	-31.001795
1.54219E-6	-30.925349
1.542235E-6	-30.906045
1.54228E-6	-31.013845
1.542325E-6	-32.138877
1.54237E-6	-35.679933
1.542415E-6	-43.06361
1.54246E-6	-54.829361
1.542505E-6	-61.672357
1.54255E-6	-67.382615
1.542595E-6	-69.661743
1.54264E-6	-68.992849
1.542685E-6	-64.683934
1.54273E-6	-52.248995
1.542775E-6	-38.623295
1.54282E-6	-33.80385
1.542865E-6	-31.706962
1.54291E-6	-31.149216
1.542955E-6	-31.041356
1.543E-6	-31.012748
1.543045E-6	-30.987597
1.54309E-6	-31.268538
1.543135E-6	-33.064489
1.54318E-6	-37.822529
1.543225E-6	-46.865546
1.54327E-6	-58.10229
1.543315E-6	-63.963145
1.54336E-6	-68.569852
1.543405E-6	-69.867413
1.54345E-6	-68.029953
1.543495E-6	-61.722431
1.54354E-6	-46.714166
1.543585E-6	-36.280091
1.54363E-6	-32.66161
1.543675E-6	-31.258662
1.54372E-6	-30.973445
1.543765E-6	-30.899095
1.54381E-6	-30.863981
1.543855E-6	-30.901766
1.5439E-6	-31.553365
1.543945E-6	-34.181641
1.54399E-6	-39.829667
1.544035E-6	-50.479344
1.54408E-6	-60.563077
1.544125E-6	-65.90405
1.54417E-6	-69.295927
1.544215E-6	-69.653715
1.54426E-6	-66.382722
1.544305E-6	-58.06041
1.54435E-6	-41.347183
1.544395E-6	-34.929541
1.54444E-6	-32.056514
1.544485E-6	-31.211911
1.54453E-6	-31.065712
1.544575E-6	-31.017137
1.54462E-6	-31.000154
1.544665E-6	-31.105862
1.54471E-6	-32.172408
1.544755E-6	-35.780672
1.5448E-6	-43.088301
1.544845E-6	-55.061239
1.54489E-6	-61.8923
1.544935E-6	-67.46662
1.54498E-6	-69.718356
1.545025E-6	-69.097419
1.54507E-6	-64.32856
1.545115E-6	-51.27203
1.54516E-6	-38.213108
1.545205E-6	-33.603143
1.54525E-6	-31.537866
1.545295E-6	-31.045222
1.54534E-6	-30.960965
1.545385E-6	-30.94474
1.54543E-6	-30.950141
1.545475E-6	-31.26912
1.54552E-6	-33.15963
1.545565E-6	-37.90485
1.54561E-6	-46.744843
1.545655E-6	-58.013429
1.5457E-6	-63.995717
1.545745E-6	-68.526329
1.54579E-6	-69.888526
1.545835E-6	-68.317973
1.54588E-6	-62.281921
1.545925E-6	-47.654827
1.54597E-6	-36.449318
1.546015E-6	-32.692177
1.54606E-6	-31.283103
1.546105E-6	-30.985417
1.54615E-6	-30.973989
1.546195E-6	-30.933418
1.54624E-6	-30.945279
1.546285E-6	-31.536629
1.54633E-6	-33.904056
1.546375E-6	-39.318141
1.54642E-6	-49.665762
1.546465E-6	-60.055509
1.54651E-6	-65.477534
1.546555E-6	-69.273825
1.5466E-6	-69.788107
1.546645E-6	-66.895191
1.54669E-6	-58.90759
1.546735E-6	-42.306965
1.54678E-6	-35.300308
1.546825E-6	-32.259943
1.54687E-6	-31.263307
1.546915E-6	-31.082396
1.54696E-6	-31.027579
1.547005E-6	-31.010555
1.54705E-6	-31.129456
1.547095E-6	-32.075383
1.54714E-6	-35.275361
1.547185E-6	-41.78552
1.54723E-6	-52.705112
1.547275E-6	-62.078185
1.54732E-6	-66.857113
1.547365E-6	-69.527251
1.54741E-6	-69.488475
1.547455E-6	-65.428754
1.5475E-6	-54.444219
1.547545E-6	-39.633711
1.54759E-6	-34.103855
1.547635E-6	-31.620961
1.54768E-6	-30.985962
1.547725E-6	-30.868752
1.54777E-6	-30.831777
1.547815E-6	-30.843364
1.54786E-6	-31.023179
1.547905E-6	-32.364223
1.54795E-6	-36.317131
1.547995E-6	-44.268962
1.54804E-6	-55.858626
1.548085E-6	-62.186755
1.54813E-6	-67.79369
1.548175E-6	-69.75104
1.54822E-6	-69.010104
1.548265E-6	-63.901922
1.54831E-6	-50.270108
1.548355E-6	-37.907532
1.5484E-6	-33.402739
1.548445E-6	-31.470932
1.54849E-6	-31.016588
1.548535E-6	-30.939345
1.54858E-6	-30.933956
1.548625E-6	-30.951763
1.54867E-6	-31.287774
1.548715E-6	-33.166827
1.54876E-6	-38.057633
1.548805E-6	-47.000571
1.54885E-6	-58.303256
1.548895E-6	-64.225082
1.54894E-6	-68.616973
1.548985E-6	-69.75925
1.54903E-6	-67.975117
1.549075E-6	-62.030096
1.54912E-6	-47.532553
1.549165E-6	-36.542343
1.54921E-6	-32.767086
1.549255E-6	-31.211337
1.5493E-6	-30.895891
1.549345E-6	-30.861332
1.54939E-6	-30.877248
1.549435E-6	-30.88949
1.54948E-6	-31.480693
1.549525E-6	-33.841551
1.54957E-6	-39.511699
1.549615E-6	-49.273825
1.54966E-6	-59.500071
1.549705E-6	-65.182708
1.54975E-6	-69.111554
1.549795E-6	-70.13721
1.54984E-6	-67.035542
1.549885E-6	-60.110845
1.54993E-6	-43.096267
1.549975E-6	-35.68154
1.55002E-6	-32.29148
1.550065E-6	-31.18102
1.55011E-6	-30.989233
1.550155E-6	-30.940962
1.5502E-6	-30.930188
1.550245E-6	-30.978339
1.55029E-6	-31.614027
1.550335E-6	-34.275931
1.55038E-6	-40.09306
1.550425E-6	-51.193007
1.55047E-6	-60.791986
1.550515E-6	-66.076548
1.55056E-6	-69.427144
1.550605E-6	-69.570309
1.55065E-6	-66.237881
1.550695E-6	-56.914356
1.55074E-6	-41.057393
1.550785E-6	-34.839938
1.55083E-6	-31.969528
1.550875E-6	-31.098585
1.55092E-6	-30.926962
1.550965E-6	-30.919441
1.55101E-6	-30.914078
1.551055E-6	-30.983238
1.5511E-6	-31.937522
1.551145E-6	-35.236032
1.55119E-6	-42.036338
1.551235E-6	-53.855246
1.55128E-6	-62.235894
1.551325E-6	-66.981023
1.55137E-6	-69.550685
1.551415E-6	-69.511699
1.55146E-6	-65.52222
1.551505E-6	-54.810914
1.55155E-6	-40
1.551595E-6	-34.332091
1.55164E-6	-31.805877
1.551685E-6	-31.09579
1.55173E-6	-31.000701
1.551775E-6	-30.970186
1.55182E-6	-30.938266
1.551865E-6	-31.103622
1.55191E-6	-32.370215
1.551955E-6	-36.118988
1.552E-6	-43.542831
1.552045E-6	-55.281218
1.55209E-6	-62.083795
1.552135E-6	-67.547342
1.55218E-6	-69.792245
1.552225E-6	-69.136402
1.55227E-6	-64.330913
1.552315E-6	-51.732128
1.55236E-6	-38.51089
1.552405E-6	-33.658251
1.55245E-6	-31.555228
1.552495E-6	-31.056839
1.55254E-6	-30.986507
1.552585E-6	-30.950141
1.55263E-6	-30.927499
1.552675E-6	-31.169066
1.55272E-6	-32.789317
1.552765E-6	-37.230789
1.55281E-6	-45.477534
1.552855E-6	-56.952941
1.5529E-6	-63.295686
1.552945E-6	-68.23041
1.55299E-6	-69.800533
1.553035E-6	-68.667805
1.55308E-6	-63.244966
1.553125E-6	-49.714287
1.55317E-6	-37.260732
1.553215E-6	-33.12471
1.55326E-6	-31.336536
1.553305E-6	-30.946899
1.55335E-6	-30.857097
1.553395E-6	-30.820221
1.55344E-6	-30.817075
1.553485E-6	-31.178171
1.55353E-6	-33.056581
1.553575E-6	-37.867479
1.55362E-6	-46.585655
1.553665E-6	-57.670039
1.55371E-6	-63.685562
1.553755E-6	-68.523237
1.5538E-6	-69.842212
1.553845E-6	-68.416375
1.55389E-6	-62.382976
1.553935E-6	-47.791078
1.55398E-6	-36.755118
1.554025E-6	-32.868456
1.55407E-6	-31.406815
1.554115E-6	-31.026479
1.55416E-6	-30.935572
1.554205E-6	-30.926962
1.55425E-6	-30.939884
1.554295E-6	-31.315319
1.55434E-6	-33.366761
1.554385E-6	-38.554258
1.55443E-6	-47.956087
1.554475E-6	-58.712777
1.55452E-6	-64.352156
1.554565E-6	-68.843895
1.55461E-6	-69.833845
1.554655E-6	-67.964232
1.5547E-6	-61.394823
1.554745E-6	-46.212388
1.55479E-6	-36.11366
1.554835E-6	-32.670436
1.55488E-6	-31.359638
1.554925E-6	-31.087972
1.55497E-6	-30.999608
1.555015E-6	-30.967472
1.55506E-6	-31.020981
1.555105E-6	-31.466669
1.55515E-6	-33.716111
1.555195E-6	-39.24453
1.55524E-6	-49.129288
1.555285E-6	-59.336741
1.55533E-6	-64.92819
1.555375E-6	-69.08333
1.55542E-6	-69.850597
1.555465E-6	-67.242281
1.55551E-6	-60.011742
1.555555E-6	-43.240385
1.5556E-6	-35.775743
1.555645E-6	-32.416181
1.55569E-6	-31.261565
1.555735E-6	-31.023179
1.55578E-6	-31.001795
1.555825E-6	-30.973989
1.55587E-6	-30.997421
1.555915E-6	-31.516877
1.55596E-6	-33.82266
1.556005E-6	-39.694003
1.55605E-6	-49.649707
1.556095E-6	-59.792245
1.55614E-6	-65.309147
1.556185E-6	-69.154237
1.55623E-6	-69.812995
1.556275E-6	-67.097427
1.55632E-6	-59.698052
1.556365E-6	-43.021606
1.55641E-6	-35.734887
1.556455E-6	-32.243168
1.5565E-6	-31.080168
1.556545E-6	-30.856039
1.55659E-6	-30.817599
1.556635E-6	-30.837567
1.55668E-6	-30.88097
1.556725E-6	-31.516877
1.55677E-6	-34.108326
1.556815E-6	-39.812995
1.55686E-6	-50.378201
1.556905E-6	-60.163286
1.55695E-6	-65.609833
1.556995E-6	-69.385475
1.55704E-6	-69.808837
1.557085E-6	-67.004927
1.55713E-6	-59.488475
1.557175E-6	-42.775306
1.55722E-6	-35.534628
1.557265E-6	-32.201871
1.55731E-6	-31.098585
1.557355E-6	-30.861332
1.5574E-6	-30.831251
1.557445E-6	-30.828622
1.55749E-6	-30.883631
1.557535E-6	-31.54964
1.55758E-6	-34.263163
1.557625E-6	-40.037511
1.55767E-6	-50.694075
1.557715E-6	-60.587371
1.55776E-6	-65.720273
1.557805E-6	-69.496202
1.55785E-6	-69.838026
1.557895E-6	-67.002748
1.55794E-6	-59.237237
1.557985E-6	-42.668027
1.55803E-6	-35.611413
1.558075E-6	-32.158108
1.55812E-6	-30.994144
1.558165E-6	-30.769633
1.55821E-6	-30.733489
1.558255E-6	-30.774821
1.5583E-6	-30.839674
1.558345E-6	-31.537866
1.55839E-6	-34.30392
1.558435E-6	-40.220479
1.55848E-6	-51.01604
1.558525E-6	-60.537443
1.55857E-6	-65.850267
1.558615E-6	-69.511699
1.55866E-6	-69.93962
1.558705E-6	-66.92932
1.55875E-6	-59.284862
1.558795E-6	-42.634442
1.55884E-6	-35.495969
1.558885E-6	-32.232988
1.55893E-6	-31.14865
1.558975E-6	-30.963133
1.55902E-6	-30.945279
1.559065E-6	-30.977795
1.55911E-6	-31.047432
1.559155E-6	-31.733422
1.5592E-6	-34.397346
1.559245E-6	-40.107727
1.55929E-6	-50.984327
1.559335E-6	-60.797201
1.55938E-6	-65.992894
1.559425E-6	-69.511699
1.55947E-6	-69.991323
1.559515E-6	-66.88458
1.55956E-6	-59.020489
1.559605E-6	-42.321765
1.55965E-6	-35.389519
1.559695E-6	-32.142432
1.55974E-6	-31.162818
1.559785E-6	-31.008364
1.55983E-6	-30.989778
1.559875E-6	-31.037494
1.55992E-6	-31.135093
1.559965E-6	-31.828314
1.56001E-6	-34.527177
1.560055E-6	-40.392914
1.5601E-6	-51.060719
1.560145E-6	-60.940962
1.56019E-6	-66.027554
1.560235E-6	-69.593977
1.56028E-6	-70.010871
1.560325E-6	-67.10634
1.56037E-6	-60.097944
1.560415E-6	-43.163227
1.56046E-6	-35.659104
1.560505E-6	-32.152401
1.56055E-6	-31.043565
1.560595E-6	-30.872998
1.56064E-6	-30.872467
1.560685E-6	-30.924812
1.56073E-6	-31.031432
1.560775E-6	-31.748336
1.56082E-6	-34.481842
1.560865E-6	-40.266412
1.56091E-6	-51.079054
1.560955E-6	-60.813407
1.561E-6	-65.996347
1.561045E-6	-69.613798
1.56109E-6	-70.029196
1.561135E-6	-67.290884
1.56118E-6	-60.071373
1.561225E-6	-43.323603
1.56127E-6	-35.630427
1.561315E-6	-32.136035
1.56136E-6	-31.017686
1.561405E-6	-30.847585
1.56145E-6	-30.863451
1.561495E-6	-30.934495
1.56154E-6	-31.017686
1.561585E-6	-31.645631
1.56163E-6	-34.160082
1.561675E-6	-39.586073
1.56172E-6	-49.948195
1.561765E-6	-60.20816
1.56181E-6	-65.492891
1.561855E-6	-69.450041
1.5619E-6	-70.180003
1.561945E-6	-68.294449
1.56199E-6	-61.607734
1.562035E-6	-46.597542
1.56208E-6	-36.095948
1.562125E-6	-32.447351
1.56217E-6	-31.084625
1.562215E-6	-30.862391
1.56226E-6	-30.887358
1.562305E-6	-30.951763
1.56235E-6	-31.051303
1.562395E-6	-31.525507
1.56244E-6	-33.656235
1.562485E-6	-38.850556
1.56253E-6	-48.158766
1.562575E-6	-58.9279
1.56262E-6	-64.700566
1.562665E-6	-69.154237
1.56271E-6	-70.252581
1.562755E-6	-68.712777
1.5628E-6	-62.705112
1.562845E-6	-48.065971
1.56289E-6	-36.575773
1.562935E-6	-32.621715
1.56298E-6	-31.060164
1.563025E-6	-30.777937
1.56307E-6	-30.818648
1.563115E-6	-30.890556
1.56316E-6	-31.002889
1.563205E-6	-31.426675
1.56325E-6	-33.411304
1.563295E-6	-38.317973
1.56334E-6	-47.804155
1.563385E-6	-58.419392
1.56343E-6	-64.453897
