Wavelength (nm)	Power (dBm)
1.525E-6	-48.241984
1.525045E-6	-48.150248
1.52509E-6	-48.054857
1.525135E-6	-47.975117
1.52518E-6	-47.89414
1.525225E-6	-47.801536
1.52527E-6	-47.705742
1.525315E-6	-47.614521
1.52536E-6	-47.520267
1.525405E-6	-47.428016
1.52545E-6	-47.31422
1.525495E-6	-47.198771
1.52554E-6	-47.068585
1.525585E-6	-46.950788
1.52563E-6	-46.850799
1.525675E-6	-46.751005
1.52572E-6	-46.653452
1.525765E-6	-46.561977
1.52581E-6	-46.485902
1.525855E-6	-46.428277
1.5259E-6	-46.38839
1.525945E-6	-46.373291
1.52599E-6	-46.322715
1.526035E-6	-46.263525
1.52608E-6	-46.206945
1.526125E-6	-46.117211
1.52617E-6	-46.044989
1.526215E-6	-45.977386
1.52626E-6	-45.8603
1.526305E-6	-45.718652
1.52635E-6	-45.611413
1.526395E-6	-45.492891
1.52644E-6	-45.416644
1.526485E-6	-45.350636
1.52653E-6	-45.284149
1.526575E-6	-45.250557
1.52662E-6	-45.179844
1.526665E-6	-45.204247
1.52671E-6	-45.249102
1.526755E-6	-45.22734
1.5268E-6	-45.201369
1.526845E-6	-45.162701
1.52689E-6	-45.090588
1.526935E-6	-45.040396
1.52698E-6	-44.992148
1.527025E-6	-44.910665
1.52707E-6	-44.770344
1.527115E-6	-44.629369
1.52716E-6	-44.489161
1.527205E-6	-44.464811
1.52725E-6	-44.400934
1.527295E-6	-44.342702
1.52734E-6	-44.300412
1.527385E-6	-44.264322
1.52743E-6	-44.326207
1.527475E-6	-44.426131
1.52752E-6	-44.509967
1.527565E-6	-44.497716
1.52761E-6	-44.4855
1.527655E-6	-44.422523
1.5277E-6	-44.399738
1.527745E-6	-44.386601
1.52779E-6	-44.333269
1.527835E-6	-44.187332
1.52788E-6	-44.014283
1.527925E-6	-43.890206
1.52797E-6	-43.861582
1.528015E-6	-43.798639
1.52806E-6	-43.801765
1.528105E-6	-43.797598
1.52815E-6	-43.763373
1.528195E-6	-43.828948
1.52824E-6	-43.985919
1.528285E-6	-44.093811
1.52833E-6	-44.135252
1.528375E-6	-44.155557
1.52842E-6	-44.140883
1.528465E-6	-44.10609
1.52851E-6	-44.101621
1.528555E-6	-44.086014
1.5286E-6	-43.959901
1.528645E-6	-43.77786
1.52869E-6	-43.626103
1.528735E-6	-43.573377
1.52878E-6	-43.567448
1.528825E-6	-43.581295
1.52887E-6	-43.56646
1.528915E-6	-43.600158
1.52896E-6	-43.624102
1.529005E-6	-43.764406
1.52905E-6	-43.9545
1.529095E-6	-44.03953
1.52914E-6	-44.036229
1.529185E-6	-44.042834
1.52923E-6	-44.037329
1.529275E-6	-44.026339
1.52932E-6	-44.03293
1.529365E-6	-43.943718
1.52941E-6	-43.747905
1.529455E-6	-43.615107
1.5295E-6	-43.544795
1.529545E-6	-43.523237
1.52959E-6	-43.527149
1.529635E-6	-43.522259
1.52968E-6	-43.514448
1.529725E-6	-43.543813
1.52977E-6	-43.67138
1.529815E-6	-43.878522
1.52986E-6	-44.040631
1.529905E-6	-44.061603
1.52995E-6	-44.061603
1.529995E-6	-44.03293
1.53004E-6	-44.067139
1.530085E-6	-44.074902
1.53013E-6	-44.045038
1.530175E-6	-43.859469
1.53022E-6	-43.680492
1.530265E-6	-43.564486
1.53031E-6	-43.553645
1.530355E-6	-43.587242
1.5304E-6	-43.567448
1.530445E-6	-43.569423
1.53049E-6	-43.578324
1.530535E-6	-43.680492
1.53058E-6	-43.877461
1.530625E-6	-44.05718
1.53067E-6	-44.128505
1.530715E-6	-44.119525
1.53076E-6	-44.133002
1.530805E-6	-44.156688
1.53085E-6	-44.152166
1.530895E-6	-44.12289
1.53094E-6	-44.026339
1.530985E-6	-43.833145
1.53103E-6	-43.668346
1.531075E-6	-43.656235
1.53112E-6	-43.666326
1.531165E-6	-43.697756
1.53121E-6	-43.673403
1.531255E-6	-43.67644
1.5313E-6	-43.731466
1.531345E-6	-43.939413
1.53139E-6	-44.143137
1.531435E-6	-44.209027
1.53148E-6	-44.266642
1.531525E-6	-44.257372
1.53157E-6	-44.280584
1.531615E-6	-44.294571
1.53166E-6	-44.299243
1.531705E-6	-44.23083
1.53175E-6	-44.038429
1.531795E-6	-43.889143
1.53184E-6	-43.828948
1.531885E-6	-43.84576
1.53193E-6	-43.843655
1.531975E-6	-43.836295
1.53202E-6	-43.856302
1.532065E-6	-43.912601
1.53211E-6	-44.028535
1.532155E-6	-44.24235
1.5322E-6	-44.420119
1.532245E-6	-44.436975
1.53229E-6	-44.459957
1.532335E-6	-44.483061
1.53238E-6	-44.512422
1.532425E-6	-44.545692
1.53247E-6	-44.490382
1.532515E-6	-44.358075
1.53256E-6	-44.17255
1.532605E-6	-44.087127
1.53265E-6	-44.059391
1.532695E-6	-44.080454
1.53274E-6	-44.067139
1.532785E-6	-44.120647
1.53283E-6	-44.154426
1.532875E-6	-44.22853
1.53292E-6	-44.435769
1.532965E-6	-44.618034
1.53301E-6	-44.723701
1.533055E-6	-44.761235
1.5331E-6	-44.805658
1.533145E-6	-44.806972
1.53319E-6	-44.813545
1.533235E-6	-44.818811
1.53328E-6	-44.749552
1.533325E-6	-44.584208
1.53337E-6	-44.438182
1.533415E-6	-44.399738
1.53346E-6	-44.404524
1.533505E-6	-44.444219
1.53355E-6	-44.449056
1.533595E-6	-44.472101
1.53364E-6	-44.556839
1.533685E-6	-44.689045
1.53373E-6	-44.91201
1.533775E-6	-45.069604
1.53382E-6	-45.124374
1.533865E-6	-45.171264
1.53391E-6	-45.204247
1.533955E-6	-45.204247
1.534E-6	-45.195619
1.534045E-6	-45.192746
1.53409E-6	-45.057062
1.534135E-6	-44.910665
1.53418E-6	-44.816177
1.534225E-6	-44.841262
1.53427E-6	-44.86516
1.534315E-6	-44.878495
1.53436E-6	-44.90932
1.534405E-6	-44.91201
1.53445E-6	-45.021033
1.534495E-6	-45.234582
1.53454E-6	-45.427238
1.534585E-6	-45.526869
1.53463E-6	-45.556429
1.534675E-6	-45.594057
1.53472E-6	-45.616159
1.534765E-6	-45.632015
1.53481E-6	-45.644741
1.534855E-6	-45.551748
1.5349E-6	-45.400047
1.534945E-6	-45.273898
1.53499E-6	-45.253467
1.535035E-6	-45.238933
1.53508E-6	-45.295895
1.535125E-6	-45.346171
1.53517E-6	-45.325399
1.535215E-6	-45.415132
1.53526E-6	-45.565805
1.535305E-6	-45.779028
1.53535E-6	-45.920995
1.535395E-6	-45.973948
1.53544E-6	-45.999804
1.535485E-6	-45.998075
1.53553E-6	-46.0206
1.535575E-6	-46.03452
1.53562E-6	-45.99462
1.535665E-6	-45.873715
1.53571E-6	-45.725139
1.535755E-6	-45.638374
1.5358E-6	-45.665502
1.535845E-6	-45.670307
1.53589E-6	-45.707323
1.535935E-6	-45.707323
1.53598E-6	-45.726762
1.536025E-6	-45.833595
1.53607E-6	-46.024076
1.536115E-6	-46.205132
1.53616E-6	-46.280091
1.536205E-6	-46.305986
1.53625E-6	-46.317131
1.536295E-6	-46.326441
1.53634E-6	-46.352614
1.536385E-6	-46.35449
1.53643E-6	-46.274562
1.536475E-6	-46.101254
1.53652E-6	-45.963648
1.536565E-6	-45.965363
1.53661E-6	-45.956795
1.536655E-6	-45.975667
1.5367E-6	-45.99462
1.536745E-6	-45.975667
1.53679E-6	-46.044989
1.536835E-6	-46.210573
1.53688E-6	-46.403542
1.536925E-6	-46.493644
1.53697E-6	-46.552149
1.537015E-6	-46.540385
1.53706E-6	-46.561977
1.537105E-6	-46.571827
1.53715E-6	-46.577748
1.537195E-6	-46.550186
1.53724E-6	-46.3865
1.537285E-6	-46.196078
1.53733E-6	-46.145725
1.537375E-6	-46.13501
1.53742E-6	-46.136794
1.537465E-6	-46.154674
1.53751E-6	-46.145725
1.537555E-6	-46.172627
1.5376E-6	-46.232406
1.537645E-6	-46.453154
1.53769E-6	-46.619421
1.537735E-6	-46.667543
1.53778E-6	-46.663512
1.537825E-6	-46.697892
1.53787E-6	-46.675615
1.537915E-6	-46.695862
1.53796E-6	-46.68168
1.538005E-6	-46.569855
1.53805E-6	-46.362001
1.538095E-6	-46.23423
1.53814E-6	-46.212388
1.538185E-6	-46.201508
1.53823E-6	-46.212388
1.538275E-6	-46.221476
1.53832E-6	-46.205132
1.538365E-6	-46.248853
1.53841E-6	-46.3865
1.538455E-6	-46.591595
1.5385E-6	-46.685727
1.538545E-6	-46.714166
1.53859E-6	-46.706021
1.538635E-6	-46.7305
1.53868E-6	-46.728455
1.538725E-6	-46.722325
1.53877E-6	-46.68168
1.538815E-6	-46.505282
1.53886E-6	-46.324577
1.538905E-6	-46.252517
1.53895E-6	-46.22876
1.538995E-6	-46.219657
1.53904E-6	-46.188849
1.539085E-6	-46.206945
1.53913E-6	-46.210573
1.539175E-6	-46.29672
1.53922E-6	-46.476245
1.539265E-6	-46.639407
1.53931E-6	-46.687752
1.539355E-6	-46.701955
1.5394E-6	-46.701955
1.539445E-6	-46.706021
1.53949E-6	-46.734593
1.539535E-6	-46.689778
1.53958E-6	-46.5738
1.539625E-6	-46.382722
1.53967E-6	-46.237881
1.539715E-6	-46.201508
1.53976E-6	-46.169031
1.539805E-6	-46.131445
1.53985E-6	-46.160052
1.539895E-6	-46.129663
1.53994E-6	-46.197888
1.539985E-6	-46.315272
1.54003E-6	-46.509168
1.540075E-6	-46.641411
1.54012E-6	-46.665527
1.540165E-6	-46.655462
1.54021E-6	-46.663512
1.540255E-6	-46.667543
1.5403E-6	-46.641411
1.540345E-6	-46.577748
1.54039E-6	-46.437829
1.540435E-6	-46.223296
1.54048E-6	-46.131445
1.540525E-6	-46.101254
1.54057E-6	-46.083593
1.540615E-6	-46.07303
1.54066E-6	-46.066003
1.540705E-6	-46.07303
1.54075E-6	-46.154674
1.540795E-6	-46.305986
1.54084E-6	-46.509168
1.540885E-6	-46.561977
1.54093E-6	-46.591595
1.540975E-6	-46.599527
1.54102E-6	-46.575773
1.541065E-6	-46.593576
1.54111E-6	-46.567884
1.541155E-6	-46.499459
1.5412E-6	-46.278247
1.541245E-6	-46.104795
1.54129E-6	-46.022337
1.541335E-6	-45.998075
1.54138E-6	-45.985995
1.541425E-6	-45.989443
1.54147E-6	-45.985995
1.541515E-6	-46.018863
1.54156E-6	-46.117211
1.541605E-6	-46.317131
1.54165E-6	-46.476245
1.541695E-6	-46.538427
1.54174E-6	-46.548224
1.541785E-6	-46.540385
1.54183E-6	-46.530605
1.541875E-6	-46.495581
1.54192E-6	-46.478175
1.541965E-6	-46.33017
1.54201E-6	-46.14215
1.542055E-6	-45.975667
1.5421E-6	-45.909126
1.542145E-6	-45.924392
1.54219E-6	-45.914209
1.542235E-6	-45.929492
1.54228E-6	-45.934598
1.542325E-6	-45.972229
1.54237E-6	-46.117211
1.542415E-6	-46.326441
1.54246E-6	-46.435917
1.542505E-6	-46.499459
1.54255E-6	-46.511113
1.542595E-6	-46.478175
1.54264E-6	-46.460838
1.542685E-6	-46.466609
1.54273E-6	-46.430186
1.542775E-6	-46.230582
1.54282E-6	-46.031036
1.542865E-6	-45.89729
1.54291E-6	-45.875395
1.542955E-6	-45.895602
1.543E-6	-45.909126
1.543045E-6	-45.880438
1.54309E-6	-45.893915
1.543135E-6	-45.977386
1.54318E-6	-46.163641
1.543225E-6	-46.3865
1.54327E-6	-46.458916
1.543315E-6	-46.474316
1.54336E-6	-46.453154
1.543405E-6	-46.464684
1.54345E-6	-46.468535
1.543495E-6	-46.464684
1.54354E-6	-46.35074
1.543585E-6	-46.145725
1.54363E-6	-45.956795
1.543675E-6	-45.878756
1.54372E-6	-45.883803
1.543765E-6	-45.885487
1.54381E-6	-45.878756
1.543855E-6	-45.88212
1.5439E-6	-45.905741
1.543945E-6	-46.039751
1.54399E-6	-46.276404
1.544035E-6	-46.447401
1.54408E-6	-46.489771
1.544125E-6	-46.489771
1.54417E-6	-46.493644
1.544215E-6	-46.505282
1.54426E-6	-46.493644
1.544305E-6	-46.458916
1.54435E-6	-46.322715
1.544395E-6	-46.101254
1.54444E-6	-45.956795
1.544485E-6	-45.902359
1.54453E-6	-45.922693
1.544575E-6	-45.905741
1.54462E-6	-45.919297
1.544665E-6	-45.900669
1.54471E-6	-45.961934
1.544755E-6	-46.170829
1.5448E-6	-46.380834
1.544845E-6	-46.522798
1.54489E-6	-46.522798
1.544935E-6	-46.528652
1.54498E-6	-46.50334
1.545025E-6	-46.390281
1.54507E-6	-45.721894
1.545115E-6	-38.860566
1.54516E-6	-27.765041
1.545205E-6	-22.548471
1.54525E-6	-20.339052
1.545295E-6	-19.817157
1.54534E-6	-19.726504
1.545385E-6	-19.702105
1.54543E-6	-19.718356
1.545475E-6	-20.109508
1.54552E-6	-22.117609
1.545565E-6	-26.92718
1.54561E-6	-36.313413
1.545655E-6	-43.580304
1.5457E-6	-45.919297
1.545745E-6	-46.422557
1.54579E-6	-46.540385
1.545835E-6	-46.561977
1.54588E-6	-46.5738
1.545925E-6	-46.489771
1.54597E-6	-46.276404
1.546015E-6	-46.07303
1.54606E-6	-46.010189
1.546105E-6	-46.006725
1.54615E-6	-45.989443
1.546195E-6	-45.992894
1.54624E-6	-45.991168
1.546285E-6	-46.017127
1.54633E-6	-46.145725
1.546375E-6	-46.375175
1.54642E-6	-46.550186
1.546465E-6	-46.615435
1.54651E-6	-46.627405
1.546555E-6	-46.633402
1.5466E-6	-46.645421
1.546645E-6	-46.637404
1.54669E-6	-46.603498
1.546735E-6	-46.489771
1.54678E-6	-46.261689
1.546825E-6	-46.108339
1.54687E-6	-46.058987
1.546915E-6	-46.051982
1.54696E-6	-46.046736
1.547005E-6	-46.038007
1.54705E-6	-46.057235
1.547095E-6	-46.094181
1.54714E-6	-46.243364
1.547185E-6	-46.476245
1.54723E-6	-46.621416
1.547275E-6	-46.663512
1.54732E-6	-46.683703
1.547365E-6	-46.689778
1.54741E-6	-46.687752
1.547455E-6	-46.689778
1.5475E-6	-46.641411
1.547545E-6	-46.472388
1.54759E-6	-46.259853
1.547635E-6	-46.126102
1.54768E-6	-46.088884
1.547725E-6	-46.064248
1.54777E-6	-46.076548
1.547815E-6	-46.090649
1.54786E-6	-46.095948
1.547905E-6	-46.165437
1.54795E-6	-46.34512
1.547995E-6	-46.561977
1.54804E-6	-46.691805
1.548085E-6	-46.722325
1.54813E-6	-46.73869
1.548175E-6	-46.746896
1.54822E-6	-46.736641
1.548265E-6	-46.720284
1.54831E-6	-46.663512
1.548355E-6	-46.476245
1.5484E-6	-46.261689
1.548445E-6	-46.151092
1.54849E-6	-46.120765
1.548535E-6	-46.110112
1.54858E-6	-46.117211
1.548625E-6	-46.138579
1.54867E-6	-46.152883
1.548715E-6	-46.225116
1.54876E-6	-46.428277
1.548805E-6	-46.645421
1.54885E-6	-46.742791
1.548895E-6	-46.767479
1.54894E-6	-46.771607
1.548985E-6	-46.781945
1.54903E-6	-46.769543
1.549075E-6	-46.74074
1.54912E-6	-46.651443
1.549165E-6	-46.453154
1.54921E-6	-46.250684
1.549255E-6	-46.152883
1.5493E-6	-46.127882
1.549345E-6	-46.127882
1.54939E-6	-46.138579
1.549435E-6	-46.14215
1.54948E-6	-46.152883
1.549525E-6	-46.258017
1.54957E-6	-46.485902
1.549615E-6	-46.679657
1.54966E-6	-46.759234
1.549705E-6	-46.773673
1.54975E-6	-46.753061
1.549795E-6	-46.699923
1.54984E-6	-46.441655
1.549885E-6	-44.88384
1.54993E-6	-33.306831
1.549975E-6	-24.610494
1.55002E-6	-21.002889
1.550065E-6	-19.829667
1.55011E-6	-19.617774
1.550155E-6	-19.597934
1.5502E-6	-19.566377
1.550245E-6	-19.613798
1.55029E-6	-20.365427
1.550335E-6	-23.244966
1.55038E-6	-29.763361
1.550425E-6	-39.527251
1.55047E-6	-45.01276
1.550515E-6	-46.3865
1.55056E-6	-46.667543
1.550605E-6	-46.716204
1.55065E-6	-46.74074
1.550695E-6	-46.734593
1.55074E-6	-46.593576
1.550785E-6	-46.337639
1.55083E-6	-46.158259
1.550875E-6	-46.104795
1.55092E-6	-46.095948
1.550965E-6	-46.110112
1.55101E-6	-46.097716
1.551055E-6	-46.095948
1.5511E-6	-46.118988
1.551145E-6	-46.289321
1.55119E-6	-46.550186
1.551235E-6	-46.716204
1.55128E-6	-46.753061
1.551325E-6	-46.755118
1.55137E-6	-46.742791
1.551415E-6	-46.736641
1.55146E-6	-46.746896
1.551505E-6	-46.712128
1.55155E-6	-46.518899
1.551595E-6	-46.248853
1.55164E-6	-46.094181
1.551685E-6	-46.058987
1.55173E-6	-46.058987
1.551775E-6	-46.062494
1.55182E-6	-46.048484
1.551865E-6	-46.039751
1.55191E-6	-46.095948
1.551955E-6	-46.302277
1.552E-6	-46.560009
1.552045E-6	-46.699923
1.55209E-6	-46.718243
1.552135E-6	-46.718243
1.55218E-6	-46.712128
1.552225E-6	-46.720284
1.55227E-6	-46.722325
1.552315E-6	-46.661499
1.55236E-6	-46.443569
1.552405E-6	-46.169031
1.55245E-6	-46.032777
1.552495E-6	-46.004993
1.55254E-6	-46.008457
1.552585E-6	-46.008457
1.55263E-6	-45.99462
1.552675E-6	-46.001533
1.55272E-6	-46.081831
1.552765E-6	-46.302277
1.55281E-6	-46.546263
1.552855E-6	-46.665527
1.5529E-6	-46.675615
1.552945E-6	-46.675615
1.55299E-6	-46.693833
1.553035E-6	-46.693833
1.55308E-6	-46.683703
1.553125E-6	-46.579723
1.55317E-6	-46.337639
1.553215E-6	-46.095948
1.55326E-6	-45.998075
1.553305E-6	-45.975667
1.55335E-6	-45.967079
1.553395E-6	-45.944829
1.55344E-6	-45.941416
1.553485E-6	-45.944829
1.55353E-6	-46.06074
1.553575E-6	-46.289321
1.55362E-6	-46.53647
1.553665E-6	-46.633402
1.55371E-6	-46.653452
1.553755E-6	-46.645421
1.5538E-6	-46.675615
1.553845E-6	-46.663512
1.55389E-6	-46.641411
1.553935E-6	-46.534514
1.55398E-6	-46.272721
1.554025E-6	-46.043242
1.55407E-6	-45.941416
1.554115E-6	-45.9176
1.55416E-6	-45.90405
1.554205E-6	-45.89729
1.55425E-6	-45.893915
1.554295E-6	-45.919297
1.55434E-6	-46.032777
1.554385E-6	-46.289321
1.55443E-6	-46.511113
1.554475E-6	-46.599527
1.55452E-6	-46.627405
1.554565E-6	-46.635403
1.55461E-6	-46.641411
1.554655E-6	-46.633402
1.5547E-6	-46.605486
1.554745E-6	-46.478175
1.55479E-6	-46.217839
1.554835E-6	-45.984272
1.55488E-6	-45.892228
1.554925E-6	-45.865326
1.55497E-6	-45.851937
1.555015E-6	-45.848596
1.55506E-6	-45.855281
1.555105E-6	-45.868679
1.55515E-6	-46.003263
1.555195E-6	-46.263525
1.55524E-6	-46.49752
1.555285E-6	-46.585655
1.55533E-6	-46.601512
1.555375E-6	-46.615435
1.55542E-6	-46.605486
1.555465E-6	-46.599527
1.55551E-6	-46.579723
1.555555E-6	-46.437829
1.5556E-6	-46.156466
1.555645E-6	-45.941416
1.55569E-6	-45.851937
1.555735E-6	-45.830268
1.55578E-6	-45.833595
1.555825E-6	-45.823623
1.55587E-6	-45.831931
1.555915E-6	-45.867002
1.55596E-6	-46.004993
1.556005E-6	-46.265363
1.55605E-6	-46.50334
1.556095E-6	-46.591595
1.55614E-6	-46.613443
1.556185E-6	-46.621416
1.55623E-6	-46.605486
1.556275E-6	-46.601512
1.55632E-6	-46.577748
1.556365E-6	-46.432095
1.55641E-6	-46.161846
1.556455E-6	-45.936302
1.5565E-6	-45.833595
1.556545E-6	-45.820304
1.55659E-6	-45.826944
1.556635E-6	-45.835259
1.55668E-6	-45.83859
1.556725E-6	-45.868679
1.55677E-6	-45.999804
1.556815E-6	-46.293019
1.55686E-6	-46.513058
1.556905E-6	-46.605486
1.55695E-6	-46.633402
1.556995E-6	-46.625407
1.55704E-6	-46.617428
1.557085E-6	-46.623411
1.55713E-6	-46.595559
1.557175E-6	-46.460838
1.55722E-6	-46.161846
1.557265E-6	-45.941416
1.55731E-6	-45.865326
1.557355E-6	-45.856953
1.5574E-6	-45.868679
1.557445E-6	-45.870357
1.55749E-6	-45.86365
1.557535E-6	-45.895602
1.55758E-6	-46.06074
1.557625E-6	-46.362001
1.55767E-6	-46.567884
1.557715E-6	-46.667543
1.55776E-6	-46.677636
1.557805E-6	-46.679657
1.55785E-6	-46.671577
1.557895E-6	-46.677636
1.55794E-6	-46.659486
1.557985E-6	-46.499459
1.55803E-6	-46.223296
1.558075E-6	-45.989443
1.55812E-6	-45.912514
1.558165E-6	-45.927791
1.55821E-6	-45.927791
1.558255E-6	-45.934598
1.5583E-6	-45.946536
1.558345E-6	-45.963648
1.55839E-6	-46.129663
1.558435E-6	-46.428277
1.55848E-6	-46.66956
1.558525E-6	-46.755118
1.55857E-6	-46.755118
1.558615E-6	-46.761294
1.55866E-6	-46.761294
1.558705E-6	-46.775739
1.55875E-6	-46.765416
1.558795E-6	-46.615435
1.55884E-6	-46.317131
1.558885E-6	-46.104795
1.55893E-6	-46.043242
1.558975E-6	-46.043242
1.55902E-6	-46.06074
1.559065E-6	-46.057235
1.55911E-6	-46.058987
1.559155E-6	-46.092415
1.5592E-6	-46.261689
1.559245E-6	-46.560009
1.55929E-6	-46.808939
1.559335E-6	-46.873996
1.55938E-6	-46.899443
1.559425E-6	-46.899443
1.55947E-6	-46.918626
1.559515E-6	-46.937895
1.55956E-6	-46.903698
1.559605E-6	-46.761294
1.55965E-6	-46.474316
1.559695E-6	-46.265363
1.55974E-6	-46.208759
1.559785E-6	-46.221476
1.55983E-6	-46.225116
1.559875E-6	-46.232406
1.55992E-6	-46.245193
1.559965E-6	-46.27088
1.56001E-6	-46.453154
1.560055E-6	-46.753061
1.5601E-6	-46.983191
1.560145E-6	-47.048729
1.56019E-6	-47.061956
1.560235E-6	-47.084092
1.56028E-6	-47.095202
1.560325E-6	-47.115272
1.56037E-6	-47.090754
1.560415E-6	-46.946486
1.56046E-6	-46.68168
1.560505E-6	-46.476245
1.56055E-6	-46.430186
1.560595E-6	-46.430186
1.56064E-6	-46.432095
1.560685E-6	-46.437829
1.56073E-6	-46.449318
1.560775E-6	-46.489771
1.56082E-6	-46.663512
1.560865E-6	-46.944337
1.56091E-6	-47.166988
1.560955E-6	-47.249191
1.561E-6	-47.267672
1.561045E-6	-47.293212
1.56109E-6	-47.302536
1.561135E-6	-47.328283
1.56118E-6	-47.304871
1.561225E-6	-47.185121
1.56127E-6	-46.918626
1.561315E-6	-46.7305
1.56136E-6	-46.673596
1.561405E-6	-46.667543
1.56145E-6	-46.66956
1.561495E-6	-46.679657
1.56154E-6	-46.708056
1.561585E-6	-46.753061
1.56163E-6	-46.893067
1.561675E-6	-47.157949
1.56172E-6	-47.392133
1.561765E-6	-47.47147
1.56181E-6	-47.4958
1.561855E-6	-47.520267
1.5619E-6	-47.539941
1.561945E-6	-47.549811
1.56199E-6	-47.539941
1.562035E-6	-47.437635
1.56208E-6	-47.210179
1.562125E-6	-47.013652
1.56217E-6	-46.940041
1.562215E-6	-46.940041
1.56226E-6	-46.93575
1.562305E-6	-46.952941
1.56235E-6	-46.976691
1.562395E-6	-47.009287
1.56244E-6	-47.124222
1.562485E-6	-47.375489
1.56253E-6	-47.609509
1.562575E-6	-47.721133
1.56262E-6	-47.749493
1.562665E-6	-47.78325
1.56271E-6	-47.788467
1.562755E-6	-47.798919
1.5628E-6	-47.796304
1.562845E-6	-47.715996
1.56289E-6	-47.510464
1.562935E-6	-47.307206
1.56298E-6	-47.221617
1.563025E-6	-47.205612
1.56307E-6	-47.217038
1.563115E-6	-47.23998
1.56316E-6	-47.263044
1.563205E-6	-47.297871
1.56325E-6	-47.401673
1.563295E-6	-47.632109
1.56334E-6	-47.867479
1.563385E-6	-47.980569
1.56343E-6	-48.027194
1.563475E-6	-48.052082
