Wavelength (nm)	Power (dBm)
1.525E-6	-63.495953
1.525045E-6	-63.524214
1.52509E-6	-64.045038
1.525135E-6	-66.058987
1.52518E-6	-69.796387
1.525225E-6	-73.247717
1.52527E-6	-74.890531
1.525315E-6	-75.040396
1.52536E-6	-74.85718
1.525405E-6	-74.989407
1.52545E-6	-73.148855
1.525495E-6	-68.377344
1.52554E-6	-64.396151
1.525585E-6	-62.80503
1.52563E-6	-62.329926
1.525675E-6	-62.148126
1.52572E-6	-61.984591
1.525765E-6	-61.817081
1.52581E-6	-61.678105
1.525855E-6	-62.046067
1.5259E-6	-63.764406
1.525945E-6	-67.267672
1.52599E-6	-71.513799
1.526035E-6	-74.40692
1.52608E-6	-74.936303
1.526125E-6	-74.849213
1.52617E-6	-74.771647
1.526215E-6	-73.531064
1.52626E-6	-68.271053
1.526305E-6	-63.590219
1.52635E-6	-61.622222
1.526395E-6	-60.953385
1.52644E-6	-60.744301
1.526485E-6	-60.64896
1.52653E-6	-60.55616
1.526575E-6	-60.507564
1.52662E-6	-60.726296
1.526665E-6	-61.940236
1.52671E-6	-64.968906
1.526755E-6	-69.28118
1.5268E-6	-73.382819
1.526845E-6	-74.66355
1.52689E-6	-74.705696
1.526935E-6	-74.613006
1.52698E-6	-73.912601
1.527025E-6	-68.938091
1.52707E-6	-63.411304
1.527115E-6	-60.751007
1.52716E-6	-59.775716
1.527205E-6	-59.531148
1.52725E-6	-59.423339
1.527295E-6	-59.370422
1.52734E-6	-59.318141
1.527385E-6	-59.411945
1.52743E-6	-60.297461
1.527475E-6	-62.94564
1.52752E-6	-67.535014
1.527565E-6	-72.071183
1.52761E-6	-74.423725
1.527655E-6	-74.70313
1.5277E-6	-74.440596
1.527745E-6	-74.418917
1.52779E-6	-70.125572
1.527835E-6	-63.639135
1.52788E-6	-60.281214
1.527925E-6	-58.917733
1.52797E-6	-58.585502
1.528015E-6	-58.489367
1.52806E-6	-58.443604
1.528105E-6	-58.395315
1.52815E-6	-58.416375
1.528195E-6	-58.982529
1.52824E-6	-60.956632
1.528285E-6	-65.223001
1.52833E-6	-70.03007
1.528375E-6	-73.129172
1.52842E-6	-74.168012
1.528465E-6	-73.158731
1.52851E-6	-69.92679
1.528555E-6	-61.394224
1.5286E-6	-44.750849
1.528645E-6	-37.387371
1.52869E-6	-34.343883
1.528735E-6	-33.314277
1.52878E-6	-32.999023
1.528825E-6	-32.920043
1.52887E-6	-32.811663
1.528915E-6	-32.926002
1.52896E-6	-34.218194
1.529005E-6	-38.054857
1.52905E-6	-45.902359
1.529095E-6	-57.644716
1.52914E-6	-64.209027
1.529185E-6	-69.673812
1.52923E-6	-71.852864
1.529275E-6	-70.728864
1.52932E-6	-65.014138
1.529365E-6	-50.307239
1.52941E-6	-38.955129
1.529455E-6	-35.087784
1.5295E-6	-33.411304
1.529545E-6	-32.982594
1.52959E-6	-32.849163
1.529635E-6	-32.765443
1.52968E-6	-32.765443
1.529725E-6	-33.532043
1.52977E-6	-36.320853
1.529815E-6	-42.550033
1.52986E-6	-54.446637
1.529905E-6	-61.783555
1.52995E-6	-68.329782
1.529995E-6	-71.350738
1.53004E-6	-71.316495
1.530085E-6	-67.090754
1.53013E-6	-55.503673
1.530175E-6	-41.102502
1.53022E-6	-35.800443
1.530265E-6	-33.698774
1.53031E-6	-33.09007
1.530355E-6	-32.909846
1.5304E-6	-32.830789
1.530445E-6	-32.735988
1.53049E-6	-33.07065
1.530535E-6	-34.983931
1.53058E-6	-39.75925
1.530625E-6	-49.090369
1.53067E-6	-60.165993
1.530715E-6	-66.103025
1.53076E-6	-70.311436
1.530805E-6	-71.677466
1.53085E-6	-69.186527
1.530895E-6	-61.123264
1.53094E-6	-43.936186
1.530985E-6	-37.033348
1.53103E-6	-34.149907
1.531075E-6	-33.194832
1.53112E-6	-32.988639
1.531165E-6	-32.903061
1.53121E-6	-32.859218
1.531255E-6	-33.00249
1.5313E-6	-34.240044
1.531345E-6	-37.918275
1.53139E-6	-45.419668
1.531435E-6	-57.269987
1.53148E-6	-64.101621
1.531525E-6	-69.523358
1.53157E-6	-71.637392
1.531615E-6	-70.684913
1.53166E-6	-64.967542
1.531705E-6	-50.367317
1.53175E-6	-38.897471
1.531795E-6	-34.937656
1.53184E-6	-33.264262
1.531885E-6	-32.867615
1.53193E-6	-32.79262
1.531975E-6	-32.790143
1.53202E-6	-32.864255
1.532065E-6	-33.460161
1.53211E-6	-35.872036
1.532155E-6	-41.18216
1.5322E-6	-51.680663
1.532245E-6	-62.051635
1.53229E-6	-67.432823
1.532335E-6	-70.800855
1.53238E-6	-71.477641
1.532425E-6	-67.512913
1.53247E-6	-56.852903
1.532515E-6	-41.45087
1.53256E-6	-35.991168
1.532605E-6	-33.567448
1.53265E-6	-32.908149
1.532695E-6	-32.859218
1.53274E-6	-32.863415
1.532785E-6	-32.883615
1.53283E-6	-33.202996
1.532875E-6	-34.87983
1.53292E-6	-39.344203
1.532965E-6	-47.843624
1.53301E-6	-59.24453
1.533055E-6	-65.505216
1.5331E-6	-70.028321
1.533145E-6	-71.826991
1.53319E-6	-70.315638
1.533235E-6	-63.686577
1.53328E-6	-48.480176
1.533325E-6	-38.164455
1.53337E-6	-34.576726
1.533415E-6	-33.235808
1.53346E-6	-32.980868
1.533505E-6	-32.976556
1.53355E-6	-33.06361
1.533595E-6	-33.251389
1.53364E-6	-34.101621
1.533685E-6	-37.077439
1.53373E-6	-43.337629
1.533775E-6	-55.259295
1.53382E-6	-62.561768
1.533865E-6	-68.777841
1.53391E-6	-71.505806
1.533955E-6	-71.307683
1.534E-6	-66.950788
1.534045E-6	-54.999008
1.53409E-6	-40.664621
1.534135E-6	-35.579908
1.53418E-6	-33.387554
1.534225E-6	-32.876029
1.53427E-6	-32.870138
1.534315E-6	-32.908997
1.53436E-6	-33.056581
1.534405E-6	-33.465945
1.53445E-6	-35.407583
1.534495E-6	-39.746941
1.53454E-6	-49.041335
1.534585E-6	-60.049355
1.53463E-6	-66.183435
1.534675E-6	-70.422012
1.53472E-6	-71.943632
1.534765E-6	-69.767475
1.53481E-6	-62.250453
1.534855E-6	-46.834007
1.5349E-6	-37.288557
1.534945E-6	-34.10609
1.53499E-6	-33.056581
1.535035E-6	-32.936236
1.53508E-6	-33.009431
1.535125E-6	-33.119363
1.53517E-6	-33.332013
1.535215E-6	-34.478187
1.53526E-6	-37.90217
1.535305E-6	-44.837291
1.53535E-6	-56.8867
1.535395E-6	-63.568435
1.53544E-6	-69.366666
1.535485E-6	-71.725661
1.53553E-6	-71.271448
1.535575E-6	-66.447401
1.53562E-6	-54.092696
1.535665E-6	-40.390538
1.53571E-6	-35.37602
1.535755E-6	-33.282719
1.5358E-6	-32.8208
1.535845E-6	-32.8208
1.53589E-6	-32.913242
1.535935E-6	-33.030324
1.53598E-6	-33.54676
1.536025E-6	-35.633604
1.53607E-6	-40.404816
1.536115E-6	-50.586874
1.53616E-6	-61.352517
1.536205E-6	-66.996219
1.53625E-6	-70.742755
1.536295E-6	-72.056514
1.53634E-6	-69.538952
1.536385E-6	-61.979107
1.53643E-6	-46.627405
1.536475E-6	-37.198771
1.53652E-6	-34.006629
1.536565E-6	-32.986911
1.53661E-6	-32.869297
1.536655E-6	-32.931969
1.5367E-6	-32.988639
1.536745E-6	-33.147959
1.53679E-6	-34.278257
1.536835E-6	-37.700623
1.53688E-6	-44.93901
1.536925E-6	-56.806857
1.53697E-6	-63.638131
1.537015E-6	-69.408154
1.53706E-6	-71.837587
1.537105E-6	-71.384059
1.53715E-6	-66.591595
1.537195E-6	-54.457532
1.53724E-6	-40.340461
1.537285E-6	-35.545515
1.53733E-6	-33.43327
1.537375E-6	-32.965367
1.53742E-6	-32.951634
1.537465E-6	-32.947351
1.53751E-6	-32.967086
1.537555E-6	-33.424661
1.5376E-6	-35.491353
1.537645E-6	-40.152027
1.53769E-6	-50.175026
1.537735E-6	-60.911934
1.53778E-6	-66.765416
1.537825E-6	-70.564066
1.53787E-6	-72.062096
1.537915E-6	-69.969705
1.53796E-6	-63.049563
1.538005E-6	-47.687854
1.53805E-6	-37.664962
1.538095E-6	-34.24235
1.53814E-6	-33.046059
1.538185E-6	-32.849163
1.53823E-6	-32.766264
1.538275E-6	-32.780246
1.53832E-6	-32.899673
1.538365E-6	-33.866868
1.53841E-6	-37.119745
1.538455E-6	-43.76544
1.5385E-6	-55.961934
1.538545E-6	-62.876871
1.53859E-6	-68.989406
1.538635E-6	-71.700533
1.53868E-6	-71.517493
1.538725E-6	-67.318903
1.53877E-6	-56.010189
1.538815E-6	-41.249966
1.53886E-6	-35.845258
1.538905E-6	-33.665315
1.53895E-6	-33.082998
1.538995E-6	-33.014645
1.53904E-6	-32.961929
1.539085E-6	-32.931116
1.53913E-6	-33.249553
1.539175E-6	-35.061239
1.53922E-6	-39.457701
1.539265E-6	-49.139963
1.53931E-6	-60.105502
1.539355E-6	-66.27088
1.5394E-6	-70.468204
1.539445E-6	-72.106308
1.53949E-6	-70.362122
1.539535E-6	-63.859469
1.53958E-6	-48.434508
1.539625E-6	-38.297383
1.53967E-6	-34.753443
1.539715E-6	-33.362991
1.53976E-6	-33.086532
1.539805E-6	-32.995559
1.53985E-6	-32.948208
1.539895E-6	-32.980005
1.53994E-6	-33.791355
1.539985E-6	-36.714166
1.54003E-6	-43.006827
1.540075E-6	-55.103227
1.54012E-6	-62.327699
1.540165E-6	-68.566729
1.54021E-6	-71.52119
1.540255E-6	-71.667254
1.5403E-6	-68.551146
1.540345E-6	-58.461851
1.54039E-6	-42.214147
1.540435E-6	-36.267201
1.54048E-6	-33.817427
1.540525E-6	-33.057459
1.54057E-6	-32.887835
1.540615E-6	-32.845817
1.54066E-6	-32.80503
1.540705E-6	-33.001623
1.54075E-6	-34.577972
1.540795E-6	-38.904215
1.54084E-6	-47.274622
1.540885E-6	-58.671002
1.54093E-6	-65.062632
1.540975E-6	-69.771594
1.54102E-6	-71.890286
1.541065E-6	-70.949601
1.54111E-6	-65.36107
1.541155E-6	-51.201017
1.5412E-6	-39.450041
1.541245E-6	-35.278289
1.54129E-6	-33.490129
1.541335E-6	-33.05044
1.54138E-6	-32.944784
1.541425E-6	-32.919192
1.54147E-6	-32.94564
1.541515E-6	-33.518352
1.54156E-6	-35.989443
1.541605E-6	-41.314143
1.54165E-6	-51.886932
1.541695E-6	-62.119731
1.54174E-6	-67.517814
1.541785E-6	-70.958256
1.54183E-6	-71.944312
1.541875E-6	-69.161392
1.54192E-6	-61.244757
1.541965E-6	-43.997897
1.54201E-6	-36.895191
1.542055E-6	-34.094925
1.5421E-6	-33.106911
1.542145E-6	-32.890369
1.54219E-6	-32.829123
1.542235E-6	-32.807516
1.54228E-6	-32.891214
1.542325E-6	-33.9794
1.54237E-6	-37.404061
1.542415E-6	-44.521023
1.54246E-6	-56.439741
1.542505E-6	-63.274404
1.54255E-6	-69.111554
1.542595E-6	-71.707606
1.54264E-6	-71.293035
1.542685E-6	-66.955095
1.54273E-6	-54.885177
1.542775E-6	-41.011103
1.54282E-6	-35.718652
1.542865E-6	-33.748934
1.54291E-6	-33.185778
1.542955E-6	-33.079466
1.543E-6	-33.042557
1.543045E-6	-33.003357
1.54309E-6	-33.251389
1.543135E-6	-34.992148
1.54318E-6	-39.523358
1.543225E-6	-48.335699
1.54327E-6	-59.641702
1.543315E-6	-65.741399
1.54336E-6	-70.154277
1.543405E-6	-71.866192
1.54345E-6	-70.291419
1.543495E-6	-64.145393
1.54354E-6	-49.255493
1.543585E-6	-38.452718
1.54363E-6	-34.766438
1.543675E-6	-33.279946
1.54372E-6	-33.001623
1.543765E-6	-32.93709
1.54381E-6	-32.902214
1.543855E-6	-32.916641
1.5439E-6	-33.504704
1.543945E-6	-36.076548
1.54399E-6	-41.613398
1.544035E-6	-52.459576
1.54408E-6	-62.29811
1.544125E-6	-67.662426
1.54417E-6	-71.054624
1.544215E-6	-71.91654
1.54426E-6	-68.924509
1.544305E-6	-60.531549
1.54435E-6	-43.672391
1.544395E-6	-36.786087
1.54444E-6	-34.145393
1.544485E-6	-33.212086
1.54453E-6	-33.082998
1.544575E-6	-33.015515
1.54462E-6	-33.028579
1.544665E-6	-33.1078
1.54471E-6	-34.155557
1.544755E-6	-37.627077
1.5448E-6	-44.90663
1.544845E-6	-56.834007
1.54489E-6	-63.628106
1.544935E-6	-69.314431
1.54498E-6	-71.636126
1.545025E-6	-71.135657
1.54507E-6	-66.516951
1.545115E-6	-53.697756
1.54516E-6	-40.34187
1.545205E-6	-35.594057
1.54525E-6	-33.461124
1.545295E-6	-32.93709
1.54534E-6	-32.844981
1.545385E-6	-32.811663
1.54543E-6	-32.807516
1.545475E-6	-33.147062
1.54552E-6	-34.90932
1.545565E-6	-39.484616
1.54561E-6	-48.193008
1.545655E-6	-59.515582
1.5457E-6	-65.597208
1.545745E-6	-70.01
1.54579E-6	-71.888944
1.545835E-6	-70.422012
1.54588E-6	-64.579219
1.545925E-6	-49.948195
1.54597E-6	-38.526329
1.546015E-6	-34.714689
1.54606E-6	-33.23215
1.546105E-6	-32.958495
1.54615E-6	-32.89375
1.546195E-6	-32.875187
1.54624E-6	-32.904756
1.546285E-6	-33.400838
1.54633E-6	-35.747919
1.546375E-6	-40.94312
1.54642E-6	-51.214208
1.546465E-6	-61.639292
1.54651E-6	-67.075224
1.546555E-6	-70.853924
1.5466E-6	-71.959288
1.546645E-6	-69.318141
1.54669E-6	-61.350738
1.546735E-6	-46.163641
1.54678E-6	-37.121983
1.546825E-6	-34.161214
1.54687E-6	-33.086532
1.546915E-6	-32.908149
1.54696E-6	-32.865095
1.547005E-6	-32.842473
1.54705E-6	-32.957637
1.547095E-6	-33.860525
1.54714E-6	-36.950788
1.547185E-6	-43.383766
1.54723E-6	-55.325399
1.547275E-6	-62.319542
1.54732E-6	-68.563608
1.547365E-6	-71.401415
1.54741E-6	-71.526742
1.547455E-6	-68.046539
1.5475E-6	-57.046529
1.547545E-6	-41.985963
1.54759E-6	-36.004993
1.547635E-6	-33.718155
1.54768E-6	-33.012037
1.547725E-6	-32.877713
1.54777E-6	-32.874345
1.547815E-6	-32.854188
1.54786E-6	-33.031196
1.547905E-6	-34.316809
1.54795E-6	-38.187282
1.547995E-6	-45.872036
1.54804E-6	-57.659892
1.548085E-6	-63.993538
1.54813E-6	-69.531148
1.548175E-6	-71.789452
1.54822E-6	-71.061828
1.548265E-6	-66.053732
1.54831E-6	-52.625688
1.548355E-6	-40.041894
1.5484E-6	-35.468346
1.548445E-6	-33.453422
1.54849E-6	-32.922595
1.548535E-6	-32.855864
1.54858E-6	-32.83329
1.548625E-6	-32.834124
1.54867E-6	-33.182162
1.548715E-6	-35.026556
1.54876E-6	-39.37418
1.548805E-6	-48.814046
1.54885E-6	-59.948195
1.548895E-6	-65.84359
1.54894E-6	-70.108618
1.548985E-6	-71.88157
1.54903E-6	-70.480799
1.549075E-6	-64.210172
1.54912E-6	-50.04672
1.549165E-6	-38.787685
1.54921E-6	-34.889192
1.549255E-6	-33.237638
1.5493E-6	-32.920043
1.549345E-6	-32.87182
1.54939E-6	-32.862575
1.549435E-6	-32.881928
1.54948E-6	-33.419886
1.549525E-6	-35.744658
1.54957E-6	-40.751524
1.549615E-6	-50.982149
1.54966E-6	-61.322969
1.549705E-6	-66.882461
1.54975E-6	-70.674755
1.549795E-6	-71.756789
1.54984E-6	-69.657727
1.549885E-6	-62.252641
1.54993E-6	-47.028963
1.549975E-6	-37.537477
1.55002E-6	-34.320331
1.550065E-6	-33.175841
1.55011E-6	-33.009431
1.550155E-6	-32.940508
1.5502E-6	-32.931116
1.550245E-6	-32.975695
1.55029E-6	-33.590219
1.550335E-6	-36.160052
1.55038E-6	-41.943632
1.550425E-6	-52.951634
1.55047E-6	-62.534436
1.550515E-6	-67.93444
1.55056E-6	-71.139607
1.550605E-6	-71.819722
1.55065E-6	-68.823973
1.550695E-6	-60.063434
1.55074E-6	-43.35264
1.550785E-6	-36.685727
1.55083E-6	-34.012095
1.550875E-6	-33.123819
1.55092E-6	-32.959353
1.550965E-6	-32.932822
1.55101E-6	-32.929411
1.551055E-6	-33.012037
1.5511E-6	-33.95342
1.551145E-6	-37.07301
1.55119E-6	-43.726341
1.551235E-6	-55.523769
1.55128E-6	-62.632052
1.551325E-6	-68.761484
1.55137E-6	-71.403814
1.551415E-6	-71.710824
1.55146E-6	-68.204482
1.551505E-6	-58.144578
1.55155E-6	-42.245352
1.551595E-6	-36.258017
1.55164E-6	-33.855246
1.551685E-6	-33.150649
1.55173E-6	-32.995559
1.551775E-6	-32.954206
1.55182E-6	-32.923447
1.551865E-6	-33.058337
1.55191E-6	-34.292236
1.551955E-6	-38.005191
1.552E-6	-45.310622
1.552045E-6	-57.018021
1.55209E-6	-63.65926
1.552135E-6	-69.359166
1.55218E-6	-71.654521
1.552225E-6	-71.201017
1.55227E-6	-66.565914
1.552315E-6	-54.023048
1.55236E-6	-40.566539
1.552405E-6	-35.738142
1.55245E-6	-33.598168
1.552495E-6	-33.043432
1.55254E-6	-32.985184
1.552585E-6	-32.940508
1.55263E-6	-32.926002
1.552675E-6	-33.156934
1.55272E-6	-34.739193
1.552765E-6	-39.041335
1.55281E-6	-47.187393
1.552855E-6	-58.677403
1.5529E-6	-65.087784
1.552945E-6	-69.718356
1.55299E-6	-71.922621
1.553035E-6	-70.908721
1.55308E-6	-65.483671
1.553125E-6	-52.131067
1.55317E-6	-39.538952
1.553215E-6	-35.191311
1.55326E-6	-33.390397
1.553305E-6	-32.982594
1.55335E-6	-32.880241
1.553395E-6	-32.83329
1.55344E-6	-32.846653
1.553485E-6	-33.183066
1.55353E-6	-35.041782
1.553575E-6	-39.621752
1.55362E-6	-48.401322
1.553665E-6	-59.480761
1.55371E-6	-65.404567
1.553755E-6	-70.057269
1.5538E-6	-71.784865
1.553845E-6	-70.546299
1.55389E-6	-64.643262
1.553935E-6	-50.42728
1.55398E-6	-38.958544
1.554025E-6	-35.007254
1.55407E-6	-33.459198
1.554115E-6	-33.069769
1.55416E-6	-32.987775
1.554205E-6	-32.963648
1.55425E-6	-32.967946
1.554295E-6	-33.331078
1.55434E-6	-35.292956
1.554385E-6	-39.842212
1.55443E-6	-49.515582
1.554475E-6	-60.34281
1.55452E-6	-66.206945
1.554565E-6	-70.397671
1.55461E-6	-71.844223
1.554655E-6	-70.219108
1.5547E-6	-63.64818
1.554745E-6	-48.751699
1.55479E-6	-38.259402
1.554835E-6	-34.782084
1.55488E-6	-33.390397
1.554925E-6	-33.09007
1.55497E-6	-33.019865
1.555015E-6	-33.003357
1.55506E-6	-33.026835
1.555105E-6	-33.436143
1.55515E-6	-35.561115
1.555195E-6	-40.572481
1.55524E-6	-50.558135
1.555285E-6	-61.047432
1.55533E-6	-66.813107
1.555375E-6	-70.641905
1.55542E-6	-71.844223
1.555465E-6	-69.718356
1.55551E-6	-62.397283
1.555555E-6	-47.176045
1.5556E-6	-37.604503
1.555645E-6	-34.470885
1.55569E-6	-33.302184
1.555735E-6	-33.009431
1.55578E-6	-32.980868
1.555825E-6	-32.972249
1.55587E-6	-33.005959
1.555915E-6	-33.469805
1.55596E-6	-35.73977
1.556005E-6	-40.848113
1.55605E-6	-51.210763
1.556095E-6	-61.578278
1.55614E-6	-67.191941
1.556185E-6	-70.832829
1.55623E-6	-71.991455
1.556275E-6	-69.742846
1.55632E-6	-62.494145
1.556365E-6	-47.042131
1.55641E-6	-37.662426
1.556455E-6	-34.399738
1.5565E-6	-33.216638
1.556545E-6	-32.947351
1.55659E-6	-32.914941
1.556635E-6	-32.913242
1.55668E-6	-32.958495
1.556725E-6	-33.537924
1.55677E-6	-36.092415
1.556815E-6	-41.520574
1.55686E-6	-51.989395
1.556905E-6	-62.092224
1.55695E-6	-67.337683
1.556995E-6	-71.055732
1.55704E-6	-72.09363
1.557085E-6	-69.566377
1.55713E-6	-61.88224
1.557175E-6	-46.761294
1.55722E-6	-37.401673
1.557265E-6	-34.327383
1.55731E-6	-33.172234
1.557355E-6	-32.934529
1.5574E-6	-32.905604
1.557445E-6	-32.922595
1.55749E-6	-32.969667
1.557535E-6	-33.599163
1.55758E-6	-36.22876
1.557625E-6	-41.906423
1.55767E-6	-52.43516
1.557715E-6	-62.493374
1.55776E-6	-67.639669
1.557805E-6	-71.203308
1.55785E-6	-71.811805
1.557895E-6	-69.442395
1.55794E-6	-61.597684
1.557985E-6	-46.378947
1.55803E-6	-37.382615
1.558075E-6	-34.223933
1.55812E-6	-33.036436
1.558165E-6	-32.791794
1.55821E-6	-32.753965
1.558255E-6	-32.766264
1.5583E-6	-32.825792
1.558345E-6	-33.494982
1.55839E-6	-36.178028
1.558435E-6	-42.077484
1.55848E-6	-52.562551
1.558525E-6	-62.367218
1.55857E-6	-67.728849
1.558615E-6	-71.198154
1.55866E-6	-71.943632
1.558705E-6	-69.500071
1.55875E-6	-61.422455
1.558795E-6	-46.420652
1.55884E-6	-37.288557
1.558885E-6	-34.2159
1.55893E-6	-33.060973
1.558975E-6	-32.860896
1.55902E-6	-32.85
1.559065E-6	-32.862575
1.55911E-6	-32.920893
1.559155E-6	-33.585259
1.5592E-6	-36.188849
1.559245E-6	-41.697964
1.55929E-6	-52.356744
1.559335E-6	-62.37997
1.55938E-6	-67.770236
1.559425E-6	-71.098585
1.55947E-6	-71.964746
1.559515E-6	-69.362914
1.55956E-6	-61.497828
1.559605E-6	-46.103025
1.55965E-6	-37.187393
1.559695E-6	-34.181641
1.55974E-6	-33.139897
1.559785E-6	-32.98432
1.55983E-6	-32.969667
1.559875E-6	-33.03731
1.55992E-6	-33.126494
1.559965E-6	-33.764406
1.56001E-6	-36.392173
1.560055E-6	-42.188193
1.5601E-6	-52.710784
1.560145E-6	-62.530546
1.56019E-6	-67.806775
1.560235E-6	-71.11259
1.56028E-6	-72.26433
1.560325E-6	-69.710223
1.56037E-6	-62.364223
1.560415E-6	-47.028963
1.56046E-6	-37.46662
1.560505E-6	-34.202164
1.56055E-6	-33.032069
1.560595E-6	-32.841637
1.56064E-6	-32.832456
1.560685E-6	-32.897134
1.56073E-6	-33.018995
1.560775E-6	-33.65422
1.56082E-6	-36.272721
1.560865E-6	-41.872203
1.56091E-6	-52.773661
1.560955E-6	-62.512694
1.561E-6	-67.780644
1.561045E-6	-71.297132
1.56109E-6	-72.251182
1.561135E-6	-69.800533
1.56118E-6	-62.429078
1.561225E-6	-47.061956
1.56127E-6	-37.416022
1.561315E-6	-34.17255
1.56136E-6	-33.013776
1.561405E-6	-32.830789
1.56145E-6	-32.851675
1.561495E-6	-32.908997
1.56154E-6	-33.013776
1.561585E-6	-33.600158
1.56163E-6	-36.010189
1.561675E-6	-41.325325
1.56172E-6	-51.692831
1.561765E-6	-61.963381
1.56181E-6	-67.286231
1.561855E-6	-71.145822
1.5619E-6	-72.331412
1.561945E-6	-70.463369
1.56199E-6	-63.817427
1.562035E-6	-48.941493
1.56208E-6	-38.150248
1.562125E-6	-34.549404
1.56217E-6	-33.085648
1.562215E-6	-32.839131
1.56226E-6	-32.843309
1.562305E-6	-32.934529
1.56235E-6	-33.023348
1.562395E-6	-33.482376
1.56244E-6	-35.540846
1.562485E-6	-40.133626
1.56253E-6	-49.726504
1.562575E-6	-60.453716
1.56262E-6	-66.42637
1.562665E-6	-70.537934
1.56271E-6	-72.258481
1.562755E-6	-70.830725
1.5628E-6	-64.718549
1.562845E-6	-50.504636
1.56289E-6	-38.709549
1.562935E-6	-34.667365
1.56298E-6	-33.054825
1.563025E-6	-32.762981
1.56307E-6	-32.777775
1.563115E-6	-32.870138
1.56316E-6	-32.962788
1.563205E-6	-33.375255
1.56325E-6	-35.332806
1.563295E-6	-39.738755
1.56334E-6	-49.381707
1.563385E-6	-60.126466
1.56343E-6	-66.066003
