Wavelength (nm)	Power (dBm)
1.525E-6	-84.068247
1.525045E-6	-84.473318
1.52509E-6	-83.975059
1.525135E-6	-80.846002
1.52518E-6	-86.333903
1.525225E-6	-90.66614
1.52527E-6	-89.669786
1.525315E-6	-87.597004
1.52536E-6	-91.962016
1.525405E-6	-94.099388
1.52545E-6	-120
1.525495E-6	-88.107905
1.52554E-6	-83.972891
1.525585E-6	-82.994693
1.52563E-6	-82.236621
1.525675E-6	-81.51503
1.52572E-6	-82.482591
1.525765E-6	-82.322506
1.52581E-6	-82.080288
1.525855E-6	-82.136746
1.5259E-6	-82.844981
1.525945E-6	-86.062494
1.52599E-6	-90.522723
1.526035E-6	-120
1.52608E-6	-120
1.526125E-6	-89.931063
1.52617E-6	-87.559704
1.526215E-6	-88.10229
1.52626E-6	-90.919978
1.526305E-6	-85.291487
1.52635E-6	-81.185012
1.526395E-6	-81.089088
1.52644E-6	-80.290491
1.526485E-6	-80.665633
1.52653E-6	-80.998514
1.526575E-6	-80.658047
1.52662E-6	-81.582652
1.526665E-6	-81.132274
1.52671E-6	-83.855246
1.526755E-6	-88.262312
1.5268E-6	-93.463052
1.526845E-6	-87.205612
1.52689E-6	-92.427558
1.526935E-6	-91.369152
1.52698E-6	-87.980569
1.527025E-6	-88.498578
1.52707E-6	-83.594192
1.527115E-6	-81.175893
1.52716E-6	-80.554186
1.527205E-6	-80.037949
1.52725E-6	-79.303319
1.527295E-6	-79.702105
1.52734E-6	-79.393022
1.527385E-6	-79.698052
1.52743E-6	-80.438316
1.527475E-6	-81.349553
1.52752E-6	-84.754741
1.527565E-6	-89.411945
1.52761E-6	-88.857227
1.527655E-6	-89.511699
1.5277E-6	-98.380334
1.527745E-6	-88.716007
1.52779E-6	-100.264565
1.527835E-6	-86.850799
1.52788E-6	-81.152046
1.527925E-6	-79.292235
1.52797E-6	-78.989406
1.528015E-6	-78.648673
1.52806E-6	-78.591778
1.528105E-6	-78.613816
1.52815E-6	-78.850556
1.528195E-6	-78.616973
1.52824E-6	-80.917295
1.528285E-6	-83.075056
1.52833E-6	-88.452718
1.528375E-6	-88.236193
1.52842E-6	-88.153086
1.528465E-6	-88.422411
1.52851E-6	-91.062937
1.528555E-6	-91.975684
1.5286E-6	-85.780672
1.528645E-6	-80.82232
1.52869E-6	-79.086848
1.528735E-6	-78.285661
1.52878E-6	-77.94525
1.528825E-6	-78.677403
1.52887E-6	-78.655041
1.528915E-6	-77.915586
1.52896E-6	-79.34047
1.529005E-6	-79.400581
1.52905E-6	-82.307704
1.529095E-6	-88.748442
1.52914E-6	-89.175737
1.529185E-6	-87.090754
1.52923E-6	-89.617774
1.529275E-6	-91.588283
1.52932E-6	-87.851562
1.529365E-6	-87.481185
1.52941E-6	-81.828314
1.529455E-6	-78.483238
1.5295E-6	-77.675121
1.529545E-6	-77.592012
1.52959E-6	-78.326827
1.529635E-6	-77.721133
1.52968E-6	-77.263044
1.529725E-6	-77.859513
1.52977E-6	-79.200955
1.529815E-6	-80.614302
1.52986E-6	-84.098272
1.529905E-6	-93.577334
1.52995E-6	-89.065783
1.529995E-6	-100.453716
1.53004E-6	-91.480693
1.530085E-6	-91.52489
1.53013E-6	-88.279812
1.530175E-6	-83.485281
1.53022E-6	-79.590023
1.530265E-6	-77.473897
1.53031E-6	-77.567139
1.530355E-6	-77.589518
1.5304E-6	-77.552282
1.530445E-6	-77.380238
1.53049E-6	-77.095202
1.530535E-6	-77.939841
1.53058E-6	-79.310724
1.530625E-6	-81.679384
1.53067E-6	-86.046736
1.530715E-6	-90.209071
1.53076E-6	-91.362015
1.530805E-6	-89.496202
1.53085E-6	-92.701875
1.530895E-6	-94.649592
1.53094E-6	-85.398542
1.530985E-6	-80.194513
1.53103E-6	-78.164455
1.531075E-6	-77.219327
1.53112E-6	-76.978856
1.531165E-6	-76.96372
1.53121E-6	-77.068585
1.531255E-6	-77.512913
1.5313E-6	-77.503126
1.531345E-6	-78.847224
1.53139E-6	-80.289562
1.531435E-6	-86.015392
1.53148E-6	-91.76265
1.531525E-6	-89.821323
1.53157E-6	-90.824945
1.531615E-6	-95.030704
1.53166E-6	-91.76591
1.531705E-6	-86.424463
1.53175E-6	-81.984591
1.531795E-6	-78.51089
1.53184E-6	-77.527635
1.531885E-6	-77.108572
1.53193E-6	-77.053134
1.531975E-6	-77.108572
1.53202E-6	-76.815193
1.532065E-6	-77.258422
1.53211E-6	-78.380334
1.532155E-6	-79.867413
1.5322E-6	-83.517376
1.532245E-6	-88.052082
1.53229E-6	-86.403542
1.532335E-6	-89.54677
1.53238E-6	-89.157813
1.532425E-6	-95.83859
1.53247E-6	-86.959405
1.532515E-6	-83.163227
1.53256E-6	-79.931063
1.532605E-6	-77.71343
1.53265E-6	-76.905828
1.532695E-6	-77.382615
1.53274E-6	-77.13319
1.532785E-6	-77.013652
1.53283E-6	-77.265357
1.532875E-6	-78.119156
1.53292E-6	-79.344203
1.532965E-6	-81.497214
1.53301E-6	-92.840802
1.533055E-6	-98.41336
1.5331E-6	-91.038597
1.533145E-6	-120
1.53319E-6	-88.329782
1.533235E-6	-88.661419
1.53328E-6	-86.659486
1.533325E-6	-81.406815
1.53337E-6	-78.365404
1.533415E-6	-77.749493
1.53346E-6	-77.723704
1.533505E-6	-77.418418
1.53355E-6	-77.9129
1.533595E-6	-77.567139
1.53364E-6	-77.233085
1.533685E-6	-78.461851
1.53373E-6	-80.438796
1.533775E-6	-84.704413
1.53382E-6	-120
1.533865E-6	-91.617808
1.53391E-6	-120
1.533955E-6	-89.037854
1.534E-6	-90.140349
1.534045E-6	-87.891466
1.53409E-6	-83.879583
1.534135E-6	-80.498787
1.53418E-6	-78.787685
1.534225E-6	-78.50473
1.53427E-6	-78.604357
1.534315E-6	-78.607508
1.53436E-6	-78.526329
1.534405E-6	-78.227522
1.53445E-6	-79.104481
1.534495E-6	-80.064315
1.53454E-6	-83.443814
1.534585E-6	-89.531148
1.53463E-6	-93.680492
1.534675E-6	-97.119745
1.53472E-6	-94.130753
1.534765E-6	-120
1.53481E-6	-93.481407
1.534855E-6	-86.267201
1.5349E-6	-83.52617
1.534945E-6	-80.224136
1.53499E-6	-79.318141
1.535035E-6	-78.944898
1.53508E-6	-78.44057
1.535125E-6	-79.020489
1.53517E-6	-78.607508
1.535215E-6	-78.259402
1.53526E-6	-79.961088
1.535305E-6	-82.31214
1.53535E-6	-85.858626
1.535395E-6	-91.091879
1.53544E-6	-88.130437
1.535485E-6	-89.492337
1.53553E-6	-89.515582
1.535575E-6	-93.503731
1.53562E-6	-91.60145
1.535665E-6	-83.412257
1.53571E-6	-80.961507
1.535755E-6	-80.399575
1.5358E-6	-80.017407
1.535845E-6	-79.211808
1.53589E-6	-80.018715
1.535935E-6	-79.710223
1.53598E-6	-79.669786
1.536025E-6	-80.170959
1.53607E-6	-83.320803
1.536115E-6	-84.353339
1.53616E-6	-86.131445
1.536205E-6	-91.956561
1.53625E-6	-120
1.536295E-6	-90.710923
1.53634E-6	-103.520305
1.536385E-6	-87.139929
1.53643E-6	-88.629625
1.536475E-6	-83.849974
1.53652E-6	-81.155445
1.536565E-6	-80.68593
1.53661E-6	-80.120657
1.536655E-6	-80.111736
1.5367E-6	-79.952488
1.536745E-6	-80.098832
1.53679E-6	-80.292348
1.536835E-6	-81.78683
1.53688E-6	-83.571399
1.536925E-6	-87.269987
1.53697E-6	-120
1.537015E-6	-82.757241
1.53706E-6	-86.375175
1.537105E-6	-95.821963
1.53715E-6	-102.344805
1.537195E-6	-90.894823
1.53724E-6	-84.614263
1.537285E-6	-84.002261
1.53733E-6	-80.372993
1.537375E-6	-80.169152
1.53742E-6	-80.602811
1.537465E-6	-80.237876
1.53751E-6	-80.750491
1.537555E-6	-80.939884
1.5376E-6	-80.137659
1.537645E-6	-82.21704
1.53769E-6	-84.091582
1.537735E-6	-93.64818
1.53778E-6	-89.718356
1.537825E-6	-97.097427
1.53787E-6	-120
1.537915E-6	-90.231459
1.53796E-6	-91.472761
1.538005E-6	-86.784016
1.53805E-6	-83.224843
1.538095E-6	-81.627905
1.53814E-6	-80.614302
1.538185E-6	-81.191293
1.53823E-6	-80.528114
1.538275E-6	-80.487596
1.53832E-6	-81.385253
1.538365E-6	-81.739252
1.53841E-6	-81.366177
1.538455E-6	-83.835245
1.5385E-6	-86.955095
1.538545E-6	-83.255982
1.53859E-6	-93.242217
1.538635E-6	-120
1.53868E-6	-91.669805
1.538725E-6	-94.194171
1.53877E-6	-93.039058
1.538815E-6	-86.458916
1.53886E-6	-82.865935
1.538905E-6	-80.959339
1.53895E-6	-80.176383
1.538995E-6	-80.113965
1.53904E-6	-81.45694
1.539085E-6	-80.713482
1.53913E-6	-80.22185
1.539175E-6	-80.699684
1.53922E-6	-82.304012
1.539265E-6	-84.091582
1.53931E-6	-86.722325
1.539355E-6	-92.920893
1.5394E-6	-92.156681
1.539445E-6	-120
1.53949E-6	-88.840568
1.539535E-6	-94.434563
1.53958E-6	-97.442452
1.539625E-6	-85.284149
1.53967E-6	-81.402614
1.539715E-6	-80.346572
1.53976E-6	-80.447935
1.539805E-6	-81.242444
1.53985E-6	-80.398147
1.539895E-6	-79.995659
1.53994E-6	-80.396244
1.539985E-6	-80.242466
1.54003E-6	-82.776952
1.540075E-6	-85.696024
1.54012E-6	-89.295927
1.540165E-6	-92.363474
1.54021E-6	-93.823707
1.540255E-6	-88.598063
1.5403E-6	-96.880343
1.540345E-6	-92.237348
1.54039E-6	-84.086014
1.540435E-6	-81.500894
1.54048E-6	-81.644997
1.540525E-6	-80.583892
1.54057E-6	-79.986991
1.540615E-6	-80.056828
1.54066E-6	-80.630341
1.540705E-6	-79.800533
1.54075E-6	-79.763361
1.540795E-6	-81.595802
1.54084E-6	-82.988639
1.540885E-6	-89.208188
1.54093E-6	-88.317973
1.540975E-6	-88.797552
1.54102E-6	-89.288547
1.541065E-6	-94.615519
1.54111E-6	-90.830725
1.541155E-6	-86.74895
1.5412E-6	-84.93901
1.541245E-6	-81.157712
1.54129E-6	-79.863203
1.541335E-6	-80
1.54138E-6	-79.389247
1.541425E-6	-80.036635
1.54147E-6	-80.012613
1.541515E-6	-79.991323
1.54156E-6	-79.633711
1.541605E-6	-83.025963
1.54165E-6	-85.612995
1.541695E-6	-87.602002
1.54174E-6	-89.076303
1.541785E-6	-90.174574
1.54183E-6	-101.778319
1.541875E-6	-94.092696
1.54192E-6	-89.943906
1.541965E-6	-86.607474
1.54201E-6	-82.865095
1.542055E-6	-80.339052
1.5421E-6	-79.854795
1.542145E-6	-80.155177
1.54219E-6	-79.617774
1.542235E-6	-79.961088
1.54228E-6	-79.515582
1.542325E-6	-79.783973
1.54237E-6	-80.46772
1.542415E-6	-83.073293
1.54246E-6	-90.613302
1.542505E-6	-120
1.54255E-6	-92.580609
1.542595E-6	-99.093893
1.54264E-6	-90.82232
1.542685E-6	-91.582652
1.54273E-6	-89.222688
1.542775E-6	-84.447846
1.54282E-6	-82.625688
1.542865E-6	-79.779843
1.54291E-6	-79.605859
1.542955E-6	-78.178708
1.543E-6	-79.41574
1.543045E-6	-79.314431
1.54309E-6	-79.336741
1.543135E-6	-79.858997
1.54318E-6	-80.899095
1.543225E-6	-83.878522
1.54327E-6	-88.492436
1.543315E-6	-92.186037
1.54336E-6	-87.796304
1.543405E-6	-96.315272
1.54345E-6	-90.640395
1.543495E-6	-90.942041
1.54354E-6	-90.018279
1.543585E-6	-83.271635
1.54363E-6	-80.558135
1.543675E-6	-79.41574
1.54372E-6	-81.061828
1.543765E-6	-78.850556
1.54381E-6	-79.125735
1.543855E-6	-78.823973
1.5439E-6	-79.661743
1.543945E-6	-79.566377
1.54399E-6	-82.556288
1.544035E-6	-84.866492
1.54408E-6	-86.081831
1.544125E-6	-89.558524
1.54417E-6	-91.135657
1.544215E-6	-95.406075
1.54426E-6	-90.097944
1.544305E-6	-89.734667
1.54435E-6	-84.294571
1.544395E-6	-81.496601
1.54444E-6	-79.511699
1.544485E-6	-79.385475
1.54453E-6	-79.30702
1.544575E-6	-78.85389
1.54462E-6	-78.931295
1.544665E-6	-79.0309
1.54471E-6	-79.400581
1.544755E-6	-80.706322
1.5448E-6	-82.795926
1.544845E-6	-85.764265
1.54489E-6	-86.920763
1.544935E-6	-90.660574
1.54498E-6	-89.755143
1.545025E-6	-85.433304
1.54507E-6	-80.593341
1.545115E-6	-68.626459
1.54516E-6	-53.312415
1.545205E-6	-47.442452
1.54525E-6	-44.805658
1.545295E-6	-44.325031
1.54534E-6	-44.237739
1.545385E-6	-44.218194
1.54543E-6	-44.233132
1.545475E-6	-44.640733
1.54552E-6	-46.724367
1.545565E-6	-51.409218
1.54561E-6	-61.264469
1.545655E-6	-68.85389
1.5457E-6	-77.20105
1.545745E-6	-82.121854
1.54579E-6	-87.022395
1.545835E-6	-87.335331
1.54588E-6	-87.452103
1.545925E-6	-86.653452
1.54597E-6	-83.843655
1.546015E-6	-80.957715
1.54606E-6	-78.548036
1.546105E-6	-78.645493
1.54615E-6	-78.961963
1.546195E-6	-78.754958
1.54624E-6	-78.887375
1.546285E-6	-79.229957
1.54633E-6	-79.385475
1.546375E-6	-81.410419
1.54642E-6	-84.640733
1.546465E-6	-89.503944
1.54651E-6	-90.324052
1.546555E-6	-89.689957
1.5466E-6	-86.903698
1.546645E-6	-87.574586
1.54669E-6	-75.021033
1.546735E-6	-58.751699
1.54678E-6	-49.500071
1.546825E-6	-45.395532
1.54687E-6	-44.383025
1.546915E-6	-44.220489
1.54696E-6	-44.188471
1.547005E-6	-44.171415
1.54705E-6	-44.314463
1.547095E-6	-45.443939
1.54714E-6	-48.934691
1.547185E-6	-56.156466
1.54723E-6	-65.205687
1.547275E-6	-73.615107
1.54732E-6	-78.71924
1.547365E-6	-84.532106
1.54741E-6	-87.260732
1.547455E-6	-88.495506
1.5475E-6	-87.399286
1.547545E-6	-84.786004
1.54759E-6	-81.350145
1.547635E-6	-79.325572
1.54768E-6	-79.182927
1.547725E-6	-78.847224
1.54777E-6	-79.248181
1.547815E-6	-78.664611
1.54786E-6	-78.601209
1.547905E-6	-79.359166
1.54795E-6	-80.167346
1.547995E-6	-82.783542
1.54804E-6	-86.341378
1.548085E-6	-92.472603
1.54813E-6	-93.927595
1.548175E-6	-90.499274
1.54822E-6	-85.699249
1.548265E-6	-81.036943
1.54831E-6	-65.867002
1.548355E-6	-52.535994
1.5484E-6	-47.002748
1.548445E-6	-44.563044
1.54849E-6	-44.161214
1.548535E-6	-44.119525
1.54858E-6	-44.069356
1.548625E-6	-44.091582
1.54867E-6	-44.544455
1.548715E-6	-46.714166
1.54876E-6	-51.658337
1.548805E-6	-61.992142
1.54885E-6	-69.125735
1.548895E-6	-77.370745
1.54894E-6	-82.051635
1.548985E-6	-85.474469
1.54903E-6	-86.185239
1.549075E-6	-91.320613
1.54912E-6	-85.649524
1.549165E-6	-82.923447
1.54921E-6	-80.521253
1.549255E-6	-79.143527
1.5493E-6	-79.037854
1.549345E-6	-78.751699
1.54939E-6	-78.827287
1.549435E-6	-79.288547
1.54948E-6	-79.270153
1.549525E-6	-80.394341
1.54957E-6	-81.678745
1.549615E-6	-83.833145
1.54966E-6	-84.730149
1.549705E-6	-91.4917
1.54975E-6	-91.88492
1.549795E-6	-85.373026
1.54984E-6	-85.823623
1.549885E-6	-75.675117
1.54993E-6	-59.535048
1.549975E-6	-49.734667
1.55002E-6	-45.386516
1.550065E-6	-44.245812
1.55011E-6	-44.037329
1.550155E-6	-44.006629
1.5502E-6	-44.011001
1.550245E-6	-44.087127
1.55029E-6	-44.910665
1.550335E-6	-47.888795
1.55038E-6	-54.341522
1.550425E-6	-63.417023
1.55047E-6	-72.141721
1.550515E-6	-79.164974
1.55056E-6	-82.616952
1.550605E-6	-86.152883
1.55065E-6	-87.042131
1.550695E-6	-90.696114
1.55074E-6	-85.697636
1.550785E-6	-81.45937
1.55083E-6	-79.262816
1.550875E-6	-78.941493
1.55092E-6	-79.30702
1.550965E-6	-78.934691
1.55101E-6	-79.262816
1.551055E-6	-79.129288
1.5511E-6	-78.728952
1.551145E-6	-79.875846
1.55119E-6	-82.590849
1.551235E-6	-85.828606
1.55128E-6	-89.825493
1.551325E-6	-88.344589
1.55137E-6	-89.629721
1.551415E-6	-89.457701
1.55146E-6	-96.821455
1.551505E-6	-92.914092
1.55155E-6	-86.039751
1.551595E-6	-81.347183
1.55164E-6	-79.450041
1.551685E-6	-79.179331
1.55173E-6	-78.784402
1.551775E-6	-78.768019
1.55182E-6	-78.9279
1.551865E-6	-78.90759
1.55191E-6	-78.401322
1.551955E-6	-79.523358
1.552E-6	-81.872203
1.552045E-6	-86.955095
1.55209E-6	-88.771291
1.552135E-6	-91.641826
1.55218E-6	-88.648673
1.552225E-6	-88.37137
1.55227E-6	-91.853529
1.552315E-6	-91.620961
1.55236E-6	-84.898573
1.552405E-6	-80.175478
1.55245E-6	-79.266483
1.552495E-6	-78.610661
1.55254E-6	-79.143527
1.552585E-6	-78.51089
1.55263E-6	-79.200955
1.552675E-6	-77.986029
1.55272E-6	-79.093893
1.552765E-6	-80.113965
1.55281E-6	-81.756789
1.552855E-6	-86.3865
1.5529E-6	-91.003983
1.552945E-6	-91.087972
1.55299E-6	-87.258422
1.553035E-6	-91.614657
1.55308E-6	-107.097427
1.553125E-6	-96.79646
1.55317E-6	-83.650192
1.553215E-6	-80.483711
1.55326E-6	-78.716007
1.553305E-6	-77.664962
1.55335E-6	-78.50473
1.553395E-6	-78.728952
1.55344E-6	-79.457701
1.553485E-6	-78.607508
1.55353E-6	-78.377344
1.553575E-6	-80.442642
1.55362E-6	-84.040631
1.553665E-6	-88.629625
1.55371E-6	-89.006647
1.553755E-6	-120
1.5538E-6	-103.633116
1.553845E-6	-94.429743
1.55389E-6	-91.667254
1.553935E-6	-101.65961
1.55398E-6	-82.560984
1.554025E-6	-79.808837
1.55407E-6	-79.172146
1.554115E-6	-78.492436
1.55416E-6	-78.790972
1.554205E-6	-78.350526
1.55425E-6	-78.604357
1.554295E-6	-78.38632
1.55434E-6	-79.076303
1.554385E-6	-81.065157
1.55443E-6	-82.699448
1.554475E-6	-87.632109
1.55452E-6	-90.268259
1.554565E-6	-89.574245
1.55461E-6	-91.418239
1.554655E-6	-96.432095
1.5547E-6	-120
1.554745E-6	-86.817279
1.55479E-6	-82.679281
1.554835E-6	-79.318141
1.55488E-6	-78.635966
1.554925E-6	-78.323873
1.55497E-6	-77.969671
1.555015E-6	-78.057633
1.55506E-6	-78.458805
1.555105E-6	-78.4649
1.55515E-6	-79.321855
1.555195E-6	-81.438151
1.55524E-6	-83.208448
1.555285E-6	-87.07301
1.55533E-6	-85.181276
1.555375E-6	-89.698052
1.55542E-6	-91.099704
1.555465E-6	-120
1.55551E-6	-89.400581
1.555555E-6	-86.478175
1.5556E-6	-83.178549
1.555645E-6	-79.115095
1.55569E-6	-78.716007
1.555735E-6	-77.672579
1.55578E-6	-78.4649
1.555825E-6	-78.44057
1.55587E-6	-78.87395
1.555915E-6	-78.648673
1.55596E-6	-79.321855
1.556005E-6	-81.163386
1.55605E-6	-83.603143
1.556095E-6	-90.117533
1.55614E-6	-88.703101
1.556185E-6	-90.093504
1.55623E-6	-88.27689
1.556275E-6	-86.414941
1.55632E-6	-95.077985
1.556365E-6	-86.804776
1.55641E-6	-82.045371
1.556455E-6	-79.511699
1.5565E-6	-78.526329
1.556545E-6	-78.155925
1.55659E-6	-78.210231
1.556635E-6	-78.153086
1.55668E-6	-78.013429
1.556725E-6	-78.955129
1.55677E-6	-78.85389
1.556815E-6	-81.732128
1.55686E-6	-84.972998
1.556905E-6	-84.739193
1.55695E-6	-87.031155
1.556995E-6	-120
1.55704E-6	-120
1.557085E-6	-87.290884
1.55713E-6	-91.394224
1.557175E-6	-85.802094
1.55722E-6	-81.65325
1.557265E-6	-79.211808
1.55731E-6	-78.317973
1.557355E-6	-78.579235
1.5574E-6	-77.994231
1.557445E-6	-78.658229
1.55749E-6	-78.210231
1.557535E-6	-78.184422
1.55758E-6	-79.28118
1.557625E-6	-80.497812
1.55767E-6	-84.786004
1.557715E-6	-90.699684
1.55776E-6	-94.489161
1.557805E-6	-95.505216
1.55785E-6	-90.975619
1.557895E-6	-87.253804
1.55794E-6	-91.055732
1.557985E-6	-85.655908
1.55803E-6	-81.272612
1.558075E-6	-79.50782
1.55812E-6	-78.428456
1.558165E-6	-77.804155
1.55821E-6	-78.368386
1.558255E-6	-78.224635
1.5583E-6	-78.389316
1.558345E-6	-78.863908
1.55839E-6	-79.476909
1.558435E-6	-80.90337
1.55848E-6	-84.606729
1.558525E-6	-91.300646
1.55857E-6	-90.736576
1.558615E-6	-87.473897
1.55866E-6	-91.752235
1.558705E-6	-87.692957
1.55875E-6	-88.529423
1.558795E-6	-87.654827
1.55884E-6	-82.586908
1.558885E-6	-79.578184
1.55893E-6	-78.965384
1.558975E-6	-78.332739
1.55902E-6	-79.511699
1.559065E-6	-78.236193
1.55911E-6	-78.860566
1.559155E-6	-78.857227
1.5592E-6	-79.157813
1.559245E-6	-80.782095
1.55929E-6	-81.285438
1.559335E-6	-120
1.55938E-6	-87.454519
1.559425E-6	-99.842212
1.55947E-6	-91.878892
1.559515E-6	-88.741935
1.55956E-6	-89.318141
1.559605E-6	-85.956795
1.55965E-6	-81.706962
1.559695E-6	-79.918258
1.55974E-6	-78.677403
1.559785E-6	-78.4649
1.55983E-6	-78.642315
1.559875E-6	-78.362425
1.55992E-6	-79.08333
1.559965E-6	-78.761484
1.56001E-6	-79.97402
1.560055E-6	-81.234935
1.5601E-6	-84.061603
1.560145E-6	-89.08333
1.56019E-6	-92.597163
1.560235E-6	-89.97402
1.56028E-6	-89.558524
1.560325E-6	-92.337359
1.56037E-6	-90.092617
1.560415E-6	-87.13319
1.56046E-6	-82.53833
1.560505E-6	-80.000434
1.56055E-6	-79.161392
1.560595E-6	-78.867253
1.56064E-6	-78.965384
1.560685E-6	-78.972234
1.56073E-6	-79.111554
1.560775E-6	-79.359166
1.56082E-6	-79.457701
1.560865E-6	-81.836261
1.56091E-6	-85.110265
1.560955E-6	-85.132862
1.561E-6	-120
1.561045E-6	-92.895441
1.56109E-6	-88.041003
1.561135E-6	-91.582027
1.56118E-6	-94.592952
1.561225E-6	-86.208759
1.56127E-6	-82.744967
1.561315E-6	-80.134522
1.56136E-6	-79.427144
1.561405E-6	-79.366666
1.56145E-6	-79.661743
1.561495E-6	-79.229957
1.56154E-6	-78.790972
1.561585E-6	-79.3968
1.56163E-6	-79.653715
1.561675E-6	-82.500319
1.56172E-6	-86.183435
1.561765E-6	-91.752235
1.56181E-6	-88.332739
1.561855E-6	-87.642191
1.5619E-6	-120
1.561945E-6	-85.73001
1.56199E-6	-92.764622
1.562035E-6	-92.257021
1.56208E-6	-82.85335
1.562125E-6	-81.596429
1.56217E-6	-80.749459
1.562215E-6	-79.617774
1.56226E-6	-79.892761
1.562305E-6	-79.995659
1.56235E-6	-79.796387
1.562395E-6	-79.657727
1.56244E-6	-80.021769
1.562485E-6	-82.922595
1.56253E-6	-85.920995
1.562575E-6	-88.961963
1.56262E-6	-86.8867
1.562665E-6	-90.900163
1.56271E-6	-120
1.562755E-6	-90.995236
1.5628E-6	-82.423004
1.562845E-6	-90.165541
1.56289E-6	-83.113133
1.562935E-6	-82.160964
1.56298E-6	-80.379149
1.563025E-6	-80.584886
1.56307E-6	-80.774302
1.563115E-6	-80.197239
1.56316E-6	-80.210438
1.563205E-6	-80.600816
1.56325E-6	-80.919441
1.563295E-6	-82.407856
1.56334E-6	-85.184141
1.563385E-6	-87.340036
1.56343E-6	-89.079815
1.563475E-6	-90.078001
1.56352E-6	-96.49752
1.563565E-6	-92.862575
1.56361E-6	-90.627329
1.563655E-6	-97.366007
1.5637E-6	-84.994891
