Wavelength (nm)	Power (dBm)
1.525E-6	-50.543345
1.525045E-6	-50.387688
1.52509E-6	-50.455645
1.525135E-6	-50.88576
1.52518E-6	-51.362015
1.525225E-6	-51.513799
1.52527E-6	-51.453904
1.525315E-6	-51.347183
1.52536E-6	-51.259243
1.525405E-6	-51.15148
1.52545E-6	-50.922126
1.525495E-6	-50.258569
1.52554E-6	-49.329291
1.525585E-6	-48.655041
1.52563E-6	-48.365404
1.525675E-6	-48.164455
1.52572E-6	-47.986029
1.525765E-6	-47.814645
1.52581E-6	-47.652297
1.525855E-6	-47.739159
1.5259E-6	-48.359447
1.525945E-6	-49.292235
1.52599E-6	-49.788107
1.526035E-6	-49.833845
1.52608E-6	-49.771594
1.526125E-6	-49.689957
1.52617E-6	-49.601894
1.526215E-6	-49.41574
1.52626E-6	-48.635966
1.526305E-6	-47.384992
1.52635E-6	-46.420652
1.526395E-6	-45.924392
1.52644E-6	-45.798792
1.526485E-6	-45.635193
1.52653E-6	-45.489815
1.526575E-6	-45.36555
1.52662E-6	-45.463759
1.526665E-6	-46.197888
1.52671E-6	-47.413627
1.526755E-6	-48.294449
1.5268E-6	-48.44664
1.526845E-6	-48.38632
1.52689E-6	-48.285661
1.526935E-6	-48.265224
1.52698E-6	-48.105097
1.527025E-6	-47.230789
1.52707E-6	-45.583049
1.527115E-6	-44.326207
1.52716E-6	-43.846813
1.527205E-6	-43.673403
1.52725E-6	-43.542831
1.527295E-6	-43.383766
1.52734E-6	-43.367704
1.527385E-6	-43.385659
1.52743E-6	-43.971807
1.527475E-6	-45.495969
1.52752E-6	-46.865546
1.527565E-6	-47.370745
1.52761E-6	-47.392133
1.527655E-6	-47.316561
1.5277E-6	-47.288557
1.527745E-6	-47.189666
1.52779E-6	-46.542343
1.527835E-6	-44.680104
1.52788E-6	-43.062731
1.527925E-6	-42.329926
1.52797E-6	-42.062794
1.528015E-6	-42.022479
1.52806E-6	-41.988708
1.528105E-6	-41.907771
1.52815E-6	-41.892971
1.528195E-6	-42.393514
1.52824E-6	-43.832095
1.528285E-6	-45.717032
1.52833E-6	-46.66956
1.528375E-6	-46.800616
1.52842E-6	-46.786087
1.528465E-6	-46.687752
1.52851E-6	-46.136794
1.528555E-6	-42.453459
1.5286E-6	-30.464336
1.528645E-6	-22.416181
1.52869E-6	-19.193735
1.528735E-6	-18.121974
1.52878E-6	-17.840982
1.528825E-6	-17.708303
1.52887E-6	-17.579558
1.528915E-6	-17.657359
1.52896E-6	-19.023957
1.529005E-6	-22.955921
1.52905E-6	-31.482526
1.529095E-6	-40.695094
1.52914E-6	-45.188441
1.529185E-6	-46.33577
1.52923E-6	-46.548224
1.529275E-6	-46.358244
1.52932E-6	-45.030704
1.529365E-6	-34.187332
1.52941E-6	-24.148778
1.529455E-6	-19.850597
1.5295E-6	-18.198741
1.529545E-6	-17.846268
1.52959E-6	-17.703182
1.529635E-6	-17.614521
1.52968E-6	-17.639669
1.529725E-6	-18.377344
1.52977E-6	-21.261565
1.529815E-6	-28.029953
1.52986E-6	-38.45576
1.529905E-6	-44.258529
1.52995E-6	-46.188849
1.529995E-6	-46.591595
1.53004E-6	-46.560009
1.530085E-6	-45.825283
1.53013E-6	-39.344203
1.530175E-6	-26.394066
1.53022E-6	-20.909256
1.530265E-6	-18.661419
1.53031E-6	-18.06041
1.530355E-6	-17.90485
1.5304E-6	-17.840982
1.530445E-6	-17.785858
1.53049E-6	-18.071539
1.530535E-6	-19.982663
1.53058E-6	-24.841262
1.530625E-6	-34.681381
1.53067E-6	-42.632849
1.530715E-6	-45.873715
1.53076E-6	-46.601512
1.530805E-6	-46.675615
1.53085E-6	-46.293019
1.530895E-6	-43.290124
1.53094E-6	-29.850597
1.530985E-6	-22.344059
1.53103E-6	-19.28118
1.531075E-6	-18.279812
1.53112E-6	-18.079904
1.531165E-6	-18.016179
1.53121E-6	-17.975117
1.531255E-6	-18.110715
1.5313E-6	-19.34047
1.531345E-6	-23.055703
1.53139E-6	-30.900697
1.531435E-6	-40.59135
1.53148E-6	-45.292956
1.531525E-6	-46.505282
1.53157E-6	-46.744843
1.531615E-6	-46.567884
1.53166E-6	-45.230235
1.531705E-6	-34.623068
1.53175E-6	-24.422523
1.531795E-6	-20.038825
1.53184E-6	-18.401322
1.531885E-6	-18.029953
1.53193E-6	-17.939841
1.531975E-6	-17.94525
1.53202E-6	-17.991495
1.532065E-6	-18.626459
1.53211E-6	-21.113713
1.532155E-6	-27.064165
1.5322E-6	-37.382615
1.532245E-6	-43.935111
1.53229E-6	-46.181632
1.532335E-6	-46.703988
1.53238E-6	-46.693833
1.532425E-6	-46.036263
1.53247E-6	-40.903905
1.532515E-6	-27.084092
1.53256E-6	-21.061273
1.532605E-6	-18.71924
1.53265E-6	-18.10229
1.532695E-6	-17.988761
1.53274E-6	-18.007935
1.532785E-6	-18.035475
1.53283E-6	-18.38632
1.532875E-6	-20.07977
1.53292E-6	-24.558079
1.532965E-6	-33.560541
1.53301E-6	-42.131067
1.533055E-6	-45.775743
1.5331E-6	-46.631402
1.533145E-6	-46.757175
1.53319E-6	-46.49752
1.533235E-6	-44.718549
1.53328E-6	-32.624893
1.533325E-6	-23.442855
1.53337E-6	-19.566377
1.533415E-6	-18.224635
1.53346E-6	-18.016179
1.533505E-6	-17.996968
1.53355E-6	-18.077114
1.533595E-6	-18.239087
1.53364E-6	-19.175737
1.533685E-6	-22.165967
1.53373E-6	-29.154237
1.533775E-6	-39.469216
1.53382E-6	-44.797786
1.533865E-6	-46.413039
1.53391E-6	-46.755118
1.533955E-6	-46.667543
1.534E-6	-45.867002
1.534045E-6	-39.427144
1.53409E-6	-26.210573
1.534135E-6	-20.644927
1.53418E-6	-18.461851
1.534225E-6	-17.991495
1.53427E-6	-17.964232
1.534315E-6	-18.077114
1.53436E-6	-18.167302
1.534405E-6	-18.563608
1.53445E-6	-20.51196
1.534495E-6	-25.329842
1.53454E-6	-34.719837
1.534585E-6	-42.735988
1.53463E-6	-45.927791
1.534675E-6	-46.68168
1.53472E-6	-46.763355
1.534765E-6	-46.397854
1.53481E-6	-43.932963
1.534855E-6	-31.025929
1.5349E-6	-22.51812
1.534945E-6	-19.157813
1.53499E-6	-18.054857
1.535035E-6	-17.950665
1.53508E-6	-18.032713
1.535125E-6	-18.124793
1.53517E-6	-18.362425
1.535215E-6	-19.519468
1.53526E-6	-22.976556
1.535305E-6	-30.362594
1.53535E-6	-40.042332
1.535395E-6	-45.223001
1.53544E-6	-46.53647
1.535485E-6	-46.784016
1.53553E-6	-46.665527
1.535575E-6	-45.696024
1.53562E-6	-38.407337
1.535665E-6	-25.684754
1.53571E-6	-20.431595
1.535755E-6	-18.291518
1.5358E-6	-17.870138
1.535845E-6	-17.851562
1.53589E-6	-17.939841
1.535935E-6	-18.046539
1.53598E-6	-18.576105
1.536025E-6	-20.790944
1.53607E-6	-25.970512
1.536115E-6	-35.926091
1.53616E-6	-43.336693
1.536205E-6	-46.080069
1.53625E-6	-46.689778
1.536295E-6	-46.74074
1.53634E-6	-46.333903
1.536385E-6	-43.834195
1.53643E-6	-30.754623
1.536475E-6	-22.417696
1.53652E-6	-18.965384
1.536565E-6	-17.939841
1.53661E-6	-17.8199
1.536655E-6	-17.851562
1.5367E-6	-17.920965
1.536745E-6	-18.105097
1.53679E-6	-19.262816
1.536835E-6	-22.704303
1.53688E-6	-30.24982
1.536925E-6	-40.070932
1.53697E-6	-45.127202
1.537015E-6	-46.441655
1.53706E-6	-46.687752
1.537105E-6	-46.581699
1.53715E-6	-45.617742
1.537195E-6	-38.434508
1.53724E-6	-25.519123
1.537285E-6	-20.317506
1.53733E-6	-18.167302
1.537375E-6	-17.723704
1.53742E-6	-17.6675
1.537465E-6	-17.685304
1.53751E-6	-17.746907
1.537555E-6	-18.17015
1.5376E-6	-20.269646
1.537645E-6	-25.465288
1.53769E-6	-35.326879
1.537735E-6	-43.044308
1.53778E-6	-45.878756
1.537825E-6	-46.538427
1.53787E-6	-46.621416
1.537915E-6	-46.29672
1.53796E-6	-44.255057
1.538005E-6	-31.644997
1.53805E-6	-22.703493
1.538095E-6	-18.992849
1.53814E-6	-17.79369
1.538185E-6	-17.604503
1.53823E-6	-17.564659
1.538275E-6	-17.574586
1.53832E-6	-17.677665
1.538365E-6	-18.658229
1.53841E-6	-22.007973
1.538455E-6	-29.411945
1.5385E-6	-39.270153
1.538545E-6	-44.690323
1.53859E-6	-46.250684
1.538635E-6	-46.587634
1.53868E-6	-46.522798
1.538725E-6	-45.792194
1.53877E-6	-39.677843
1.538815E-6	-26.499459
1.53886E-6	-20.75359
1.538905E-6	-18.434508
1.53895E-6	-17.859513
1.538995E-6	-17.749493
1.53904E-6	-17.708303
1.539085E-6	-17.708303
1.53913E-6	-18.007935
1.539175E-6	-19.867413
1.53922E-6	-24.701848
1.539265E-6	-34.257372
1.53931E-6	-42.562551
1.539355E-6	-45.743028
1.5394E-6	-46.476245
1.539445E-6	-46.591595
1.53949E-6	-46.311555
1.539535E-6	-44.587953
1.53958E-6	-32.381473
1.539625E-6	-23.189398
1.53967E-6	-19.329291
1.539715E-6	-18.01893
1.53976E-6	-17.765041
1.539805E-6	-17.677665
1.53985E-6	-17.642191
1.539895E-6	-17.682756
1.53994E-6	-18.486301
1.539985E-6	-21.484359
1.54003E-6	-28.582368
1.540075E-6	-39.154237
1.54012E-6	-44.450265
1.540165E-6	-46.169031
1.54021E-6	-46.563945
1.540255E-6	-46.550186
1.5403E-6	-45.970512
1.540345E-6	-41.193007
1.54039E-6	-27.478754
1.540435E-6	-21.250546
1.54048E-6	-18.620133
1.540525E-6	-17.87546
1.54057E-6	-17.705742
1.540615E-6	-17.657359
1.54066E-6	-17.637147
1.540705E-6	-17.862167
1.54075E-6	-19.450041
1.540795E-6	-23.793435
1.54084E-6	-32.659206
1.540885E-6	-41.607734
1.54093E-6	-45.474469
1.540975E-6	-46.437829
1.54102E-6	-46.623411
1.541065E-6	-46.430186
1.54111E-6	-45.234582
1.541155E-6	-35.134278
1.5412E-6	-24.61175
1.541245E-6	-20.152027
1.54129E-6	-18.428456
1.541335E-6	-18.016179
1.54138E-6	-17.907532
1.541425E-6	-17.859513
1.54147E-6	-17.856861
1.541515E-6	-18.477117
1.54156E-6	-21.04467
1.541605E-6	-27.031155
1.54165E-6	-37.361273
1.541695E-6	-43.76544
1.54174E-6	-46.058987
1.541785E-6	-46.558043
1.54183E-6	-46.575773
1.541875E-6	-46.124322
1.54192E-6	-43.225756
1.541965E-6	-29.461536
1.54201E-6	-21.936843
1.542055E-6	-18.90759
1.5421E-6	-17.975117
1.542145E-6	-17.772835
1.54219E-6	-17.682756
1.542235E-6	-17.677665
1.54228E-6	-17.767637
1.542325E-6	-18.884015
1.54237E-6	-22.379219
1.542415E-6	-29.854795
1.54246E-6	-39.645703
1.542505E-6	-44.886515
1.54255E-6	-46.304131
1.542595E-6	-46.5738
1.54264E-6	-46.493644
1.542685E-6	-45.679933
1.54273E-6	-38.797552
1.542775E-6	-26.122543
1.54282E-6	-20.72527
1.542865E-6	-18.544928
1.54291E-6	-18.016179
1.542955E-6	-17.880789
1.543E-6	-17.833064
1.543045E-6	-17.8199
1.54309E-6	-18.096683
1.543135E-6	-19.838026
1.54318E-6	-24.521023
1.543225E-6	-33.922234
1.54327E-6	-42.248266
1.543315E-6	-45.647929
1.54336E-6	-46.460838
1.543405E-6	-46.595559
1.54345E-6	-46.33577
1.543495E-6	-44.758636
1.54354E-6	-33.295686
1.543585E-6	-23.656235
1.54363E-6	-19.653715
1.543675E-6	-18.236193
1.54372E-6	-17.947956
1.543765E-6	-17.87546
1.54381E-6	-17.851562
1.543855E-6	-17.883456
1.5439E-6	-18.523237
1.543945E-6	-21.115958
1.54399E-6	-27.342391
1.544035E-6	-37.677665
1.54408E-6	-43.932963
1.544125E-6	-46.099485
1.54417E-6	-46.550186
1.544215E-6	-46.5738
1.54426E-6	-46.127882
1.544305E-6	-42.784367
1.54435E-6	-29.233596
1.544395E-6	-21.886261
1.54444E-6	-18.948306
1.544485E-6	-18.119156
1.54453E-6	-17.939841
1.544575E-6	-17.931741
1.54462E-6	-17.920965
1.544665E-6	-18.032713
1.54471E-6	-19.139963
1.544755E-6	-22.604277
1.5448E-6	-30.252581
1.544845E-6	-40.045842
1.54489E-6	-45.057062
1.544935E-6	-46.343249
1.54498E-6	-46.619421
1.545025E-6	-46.522798
1.54507E-6	-45.632015
1.545115E-6	-38.288588
1.54516E-6	-25.751184
1.545205E-6	-20.56456
1.54525E-6	-18.474059
1.545295E-6	-17.969671
1.54534E-6	-17.880789
1.545385E-6	-17.867479
1.54543E-6	-17.872798
1.545475E-6	-18.187282
1.54552E-6	-19.97402
1.545565E-6	-24.754741
1.54561E-6	-33.800723
1.545655E-6	-42.237348
1.5457E-6	-45.683147
1.545745E-6	-46.515004
1.54579E-6	-46.643415
1.545835E-6	-46.434006
1.54588E-6	-44.990778
1.545925E-6	-34.102737
1.54597E-6	-23.881705
1.546015E-6	-19.75925
1.54606E-6	-18.279812
1.546105E-6	-18.032713
1.54615E-6	-17.969671
1.546195E-6	-17.93444
1.54624E-6	-17.961515
1.546285E-6	-18.492436
1.54633E-6	-20.827046
1.546375E-6	-26.625407
1.54642E-6	-36.888822
1.546465E-6	-43.67644
1.54651E-6	-46.069515
1.546555E-6	-46.609463
1.5466E-6	-46.661499
1.546645E-6	-46.263525
1.54669E-6	-43.39514
1.546735E-6	-30.3711
1.54678E-6	-22.429838
1.546825E-6	-19.219058
1.54687E-6	-18.193008
1.546915E-6	-18.01893
1.54696E-6	-17.991495
1.547005E-6	-17.94525
1.54705E-6	-18.057633
1.547095E-6	-19.006647
1.54714E-6	-22.119731
1.547185E-6	-29.20457
1.54723E-6	-39.511699
1.547275E-6	-44.666093
1.54732E-6	-46.33017
1.547365E-6	-46.66956
1.54741E-6	-46.631402
1.547455E-6	-45.999804
1.5475E-6	-41.092996
1.547545E-6	-27.522722
1.54759E-6	-21.309444
1.547635E-6	-18.794261
1.54768E-6	-18.138916
1.547725E-6	-18.016179
1.54777E-6	-17.999707
1.547815E-6	-17.991495
1.54786E-6	-18.187282
1.547905E-6	-19.523358
1.54795E-6	-23.394191
1.547995E-6	-31.697322
1.54804E-6	-41.013297
1.548085E-6	-45.322439
1.54813E-6	-46.483969
1.548175E-6	-46.720284
1.54822E-6	-46.581699
1.548265E-6	-45.616159
1.54831E-6	-36.794383
1.548355E-6	-25.536182
1.5484E-6	-20.633857
1.548445E-6	-18.661419
1.54849E-6	-18.195874
1.548535E-6	-18.116341
1.54858E-6	-18.096683
1.548625E-6	-18.110715
1.54867E-6	-18.44664
1.548715E-6	-20.313303
1.54876E-6	-25.083582
1.548805E-6	-34.577972
1.54885E-6	-42.655202
1.548895E-6	-45.856953
1.54894E-6	-46.615435
1.548985E-6	-46.714166
1.54903E-6	-46.483969
1.549075E-6	-44.921441
1.54912E-6	-34.059391
1.549165E-6	-24.125135
1.54921E-6	-19.867413
1.549255E-6	-18.279812
1.5493E-6	-17.947956
1.549345E-6	-17.89414
1.54939E-6	-17.883456
1.549435E-6	-17.931741
1.54948E-6	-18.486301
1.549525E-6	-20.805035
1.54957E-6	-26.458916
1.549615E-6	-36.441655
1.54966E-6	-43.523237
1.549705E-6	-46.066003
1.54975E-6	-46.643415
1.549795E-6	-46.695862
1.54984E-6	-46.328305
1.549885E-6	-44.000078
1.54993E-6	-31.2056
1.549975E-6	-22.739251
1.55002E-6	-19.284862
1.550065E-6	-18.181564
1.55011E-6	-17.9588
1.550155E-6	-17.915586
1.5502E-6	-17.907532
1.550245E-6	-17.950665
1.55029E-6	-18.623295
1.550335E-6	-21.26505
1.55038E-6	-27.632109
1.550425E-6	-38.096683
1.55047E-6	-44.147649
1.550515E-6	-46.212388
1.55056E-6	-46.645421
1.550605E-6	-46.649435
1.55065E-6	-46.14215
1.550695E-6	-42.49029
1.55074E-6	-29.051796
1.550785E-6	-21.913165
1.55083E-6	-19.027427
1.550875E-6	-18.16161
1.55092E-6	-17.999707
1.550965E-6	-17.980569
1.55101E-6	-17.942545
1.551055E-6	-18.046539
1.5511E-6	-19.006647
1.551145E-6	-22.210533
1.55119E-6	-29.562449
1.551235E-6	-39.186527
1.55128E-6	-44.72499
1.551325E-6	-46.339508
1.55137E-6	-46.649435
1.551415E-6	-46.607474
1.55146E-6	-46.004993
1.551505E-6	-41.278437
1.55155E-6	-28.041003
1.551595E-6	-21.602706
1.55164E-6	-18.985966
1.551685E-6	-18.250684
1.55173E-6	-18.136088
1.551775E-6	-18.08549
1.55182E-6	-18.06041
1.551865E-6	-18.215987
1.55191E-6	-19.465374
1.551955E-6	-23.177646
1.552E-6	-31.013297
1.552045E-6	-40.510982
1.55209E-6	-45.189876
1.552135E-6	-46.424463
1.55218E-6	-46.649435
1.552225E-6	-46.560009
1.55227E-6	-45.696024
1.552315E-6	-38.693447
1.55236E-6	-26.039751
1.552405E-6	-20.819697
1.55245E-6	-18.696662
1.552495E-6	-18.178708
1.55254E-6	-18.110715
1.552585E-6	-18.065971
1.55263E-6	-18.074325
1.552675E-6	-18.303256
1.55272E-6	-19.913998
1.552765E-6	-24.326207
1.55281E-6	-33.097153
1.552855E-6	-41.853529
1.5529E-6	-45.592483
1.552945E-6	-46.483969
1.55299E-6	-46.645421
1.553035E-6	-46.499459
1.55308E-6	-45.392525
1.553125E-6	-36.038007
1.55317E-6	-24.913356
1.553215E-6	-20.283068
1.55326E-6	-18.480176
1.553305E-6	-18.088285
1.55335E-6	-18.016179
1.553395E-6	-17.956087
1.55344E-6	-17.93714
1.553485E-6	-18.315025
1.55353E-6	-20.173218
1.553575E-6	-24.87983
1.55362E-6	-34.181641
1.553665E-6	-42.219935
1.55371E-6	-45.683147
1.553755E-6	-46.515004
1.5538E-6	-46.651443
1.553845E-6	-46.443569
1.55389E-6	-45.05428
1.553935E-6	-34.334447
1.55398E-6	-24.175957
1.554025E-6	-19.97402
1.55407E-6	-18.404328
1.554115E-6	-18.057633
1.55416E-6	-17.969671
1.554205E-6	-17.956087
1.55425E-6	-17.947956
1.554295E-6	-18.31208
1.55434E-6	-20.348924
1.554385E-6	-25.427238
1.55443E-6	-35.284149
1.554475E-6	-42.903909
1.55452E-6	-45.846927
1.554565E-6	-46.552149
1.55461E-6	-46.653452
1.554655E-6	-46.378947
1.5547E-6	-44.577972
1.554745E-6	-32.867615
1.55479E-6	-23.528127
1.554835E-6	-19.730584
1.55488E-6	-18.380334
1.554925E-6	-18.113527
1.55497E-6	-18.035475
1.555015E-6	-18.007935
1.55506E-6	-18.029953
1.555105E-6	-18.458805
1.55515E-6	-20.624821
1.555195E-6	-26.178028
1.55524E-6	-36.136794
1.555285E-6	-43.300326
1.55533E-6	-45.955084
1.555375E-6	-46.565914
1.55542E-6	-46.629403
1.555465E-6	-46.283781
1.55551E-6	-43.983745
1.555555E-6	-31.388242
1.5556E-6	-22.904756
1.555645E-6	-19.457701
1.55569E-6	-18.303256
1.555735E-6	-18.096683
1.55578E-6	-18.029953
1.555825E-6	-17.999707
1.55587E-6	-18.024438
1.555915E-6	-18.520147
1.55596E-6	-20.834934
1.556005E-6	-26.629403
1.55605E-6	-36.74074
1.556095E-6	-43.668346
1.55614E-6	-46.031036
1.556185E-6	-46.577748
1.55623E-6	-46.623411
1.556275E-6	-46.281935
1.55632E-6	-43.892334
1.556365E-6	-31.283103
1.55641E-6	-23.036436
1.556455E-6	-19.492337
1.5565E-6	-18.323873
1.556545E-6	-18.113527
1.55659E-6	-18.06319
1.556635E-6	-18.057633
1.55668E-6	-18.099486
1.556725E-6	-18.741935
1.55677E-6	-21.274941
1.556815E-6	-27.404061
1.55686E-6	-37.437635
1.556905E-6	-43.959901
1.55695E-6	-46.110112
1.556995E-6	-46.589614
1.55704E-6	-46.621416
1.557085E-6	-46.259853
1.55713E-6	-43.67138
1.557175E-6	-30.883098
1.55722E-6	-22.612194
1.557265E-6	-19.35542
1.55731E-6	-18.241984
1.557355E-6	-18.010681
1.5574E-6	-17.994231
1.557445E-6	-17.986029
1.55749E-6	-18.041003
1.557535E-6	-18.716007
1.55758E-6	-21.360826
1.557625E-6	-27.726276
1.55767E-6	-37.8199
1.557715E-6	-44.031831
1.55776E-6	-46.136794
1.557805E-6	-46.609463
1.55785E-6	-46.631402
1.557895E-6	-46.248853
1.55794E-6	-43.604139
1.557985E-6	-30.706322
1.55803E-6	-22.74415
1.558075E-6	-19.3968
1.55812E-6	-18.250684
1.558165E-6	-18.024438
1.55821E-6	-18.007935
1.558255E-6	-18.013429
1.5583E-6	-18.091083
1.558345E-6	-18.820662
1.55839E-6	-21.552123
1.558435E-6	-27.991495
1.55848E-6	-38.043771
1.558525E-6	-44.107208
1.55857E-6	-46.208759
1.558615E-6	-46.637404
1.55866E-6	-46.647427
1.558705E-6	-46.278247
1.55875E-6	-43.536943
1.558795E-6	-30.759276
1.55884E-6	-22.657604
1.558885E-6	-19.329291
1.55893E-6	-18.227522
1.558975E-6	-18.032713
1.55902E-6	-18.043771
1.559065E-6	-18.068754
1.55911E-6	-18.136088
1.559155E-6	-18.794261
1.5592E-6	-21.412824
1.559245E-6	-27.695511
1.55929E-6	-37.864822
1.559335E-6	-44.079343
1.55938E-6	-46.217839
1.559425E-6	-46.667543
1.55947E-6	-46.689778
1.559515E-6	-46.289321
1.55956E-6	-43.465945
1.559605E-6	-30.44168
1.55965E-6	-22.427558
1.559695E-6	-19.211808
1.55974E-6	-18.158766
1.559785E-6	-18.013429
1.55983E-6	-18.04931
1.559875E-6	-18.079904
1.55992E-6	-18.178708
1.559965E-6	-18.863908
1.56001E-6	-21.520574
1.560055E-6	-27.864822
1.5601E-6	-38.035475
1.560145E-6	-44.233132
1.56019E-6	-46.27088
1.560235E-6	-46.732546
1.56028E-6	-46.767479
1.560325E-6	-46.430186
1.56037E-6	-44.036229
1.560415E-6	-31.359044
1.56046E-6	-22.809174
1.560505E-6	-19.310724
1.56055E-6	-18.173001
1.560595E-6	-17.991495
1.56064E-6	-18.01893
1.560685E-6	-18.054857
1.56073E-6	-18.153086
1.560775E-6	-18.850556
1.56082E-6	-21.513799
1.560865E-6	-27.840982
1.56091E-6	-38.144578
1.560955E-6	-44.236586
1.561E-6	-46.29672
1.561045E-6	-46.769543
1.56109E-6	-46.815193
1.561135E-6	-46.466609
1.56118E-6	-44.155557
1.561225E-6	-31.417637
1.56127E-6	-22.825792
1.561315E-6	-19.266483
1.56136E-6	-18.147412
1.561405E-6	-17.977842
1.56145E-6	-18.007935
1.561495E-6	-18.071539
1.56154E-6	-18.138916
1.561585E-6	-18.738686
1.56163E-6	-21.262726
1.561675E-6	-27.295541
1.56172E-6	-37.316561
1.561765E-6	-43.950184
1.56181E-6	-46.261689
1.561855E-6	-46.804776
1.5619E-6	-46.869769
1.561945E-6	-46.605486
1.56199E-6	-44.797786
1.562035E-6	-33.225756
1.56208E-6	-23.527149
1.562125E-6	-19.531148
1.56217E-6	-18.164455
1.562215E-6	-17.942545
1.56226E-6	-17.9588
1.562305E-6	-18.01893
1.56235E-6	-18.10229
1.562395E-6	-18.572978
1.56244E-6	-20.692037
1.562485E-6	-25.920995
1.56253E-6	-35.721894
1.562575E-6	-43.12471
1.56262E-6	-46.108339
1.562665E-6	-46.806857
1.56271E-6	-46.912222
1.562755E-6	-46.687752
1.5628E-6	-45.231684
1.562845E-6	-34.525945
1.56289E-6	-23.984832
1.562935E-6	-19.673812
1.56298E-6	-18.074325
1.563025E-6	-17.806775
1.56307E-6	-17.827793
1.563115E-6	-17.90217
1.56316E-6	-17.986029
1.563205E-6	-18.419392
1.56325E-6	-20.377254
1.563295E-6	-25.377518
1.56334E-6	-34.970269
1.563385E-6	-42.84749
1.56343E-6	-46.044989
1.563475E-6	-46.836102
