Wavelength (nm)	Power (dBm)
1.525E-6	-47.81202
1.525045E-6	-47.657359
1.52509E-6	-47.690404
1.525135E-6	-47.988761
1.52518E-6	-48.306195
1.525225E-6	-48.353498
1.52527E-6	-48.244882
1.525315E-6	-48.113527
1.52536E-6	-47.986029
1.525405E-6	-47.867479
1.52545E-6	-47.649768
1.525495E-6	-47.07301
1.52554E-6	-46.289321
1.525585E-6	-45.707323
1.52563E-6	-45.492891
1.525675E-6	-45.28855
1.52572E-6	-45.09199
1.525765E-6	-44.936303
1.52581E-6	-44.805658
1.525855E-6	-44.91605
1.5259E-6	-45.410601
1.525945E-6	-46.050233
1.52599E-6	-46.283781
1.526035E-6	-46.27088
1.52608E-6	-46.154674
1.526125E-6	-46.008457
1.52617E-6	-45.934598
1.526215E-6	-45.756084
1.52626E-6	-45.05011
1.526305E-6	-44.03293
1.52635E-6	-43.36959
1.526395E-6	-43.075938
1.52644E-6	-42.886146
1.526485E-6	-42.740067
1.52653E-6	-42.620921
1.526575E-6	-42.494916
1.52662E-6	-42.53288
1.526665E-6	-43.112243
1.52671E-6	-44.013189
1.526755E-6	-44.500164
1.5268E-6	-44.544455
1.526845E-6	-44.48428
1.52689E-6	-44.450265
1.526935E-6	-44.321505
1.52698E-6	-44.136378
1.527025E-6	-43.506651
1.52707E-6	-42.323989
1.527115E-6	-41.311793
1.52716E-6	-40.910863
1.527205E-6	-40.75204
1.52725E-6	-40.651987
1.527295E-6	-40.525173
1.52734E-6	-40.412451
1.527385E-6	-40.434954
1.52743E-6	-40.989233
1.527475E-6	-42.079587
1.52752E-6	-42.972249
1.527565E-6	-43.224843
1.52761E-6	-43.214816
1.527655E-6	-43.204813
1.5277E-6	-43.067128
1.527745E-6	-43.013776
1.52779E-6	-42.518895
1.527835E-6	-41.173047
1.52788E-6	-39.961088
1.527925E-6	-39.408154
1.52797E-6	-39.262816
1.528015E-6	-39.161392
1.52806E-6	-39.069287
1.528105E-6	-39.010104
1.52815E-6	-39.051796
1.528195E-6	-39.400581
1.52824E-6	-40.517827
1.528285E-6	-41.852199
1.52833E-6	-42.38448
1.528375E-6	-42.498775
1.52842E-6	-42.479516
1.528465E-6	-42.445825
1.52851E-6	-42.417696
1.528555E-6	-42.075383
1.5286E-6	-40.877779
1.528645E-6	-39.41574
1.52869E-6	-38.572978
1.528735E-6	-38.294449
1.52878E-6	-38.247782
1.528825E-6	-38.262312
1.52887E-6	-38.207355
1.528915E-6	-38.164455
1.52896E-6	-38.498578
1.529005E-6	-39.500071
1.52905E-6	-41.049644
1.529095E-6	-41.989395
1.52914E-6	-42.203314
1.529185E-6	-42.257021
1.52923E-6	-42.171692
1.529275E-6	-41.970895
1.52932E-6	-40.745848
1.529365E-6	-30.962049
1.52941E-6	-21.596429
1.529455E-6	-17.584535
1.5295E-6	-16.095948
1.529545E-6	-15.721894
1.52959E-6	-15.614577
1.529635E-6	-15.542402
1.52968E-6	-15.561115
1.529725E-6	-16.343249
1.52977E-6	-19.295927
1.529815E-6	-25.898979
1.52986E-6	-35.40306
1.529905E-6	-40.679831
1.52995E-6	-41.88224
1.529995E-6	-42.153114
1.53004E-6	-42.243168
1.530085E-6	-42.235167
1.53013E-6	-41.719204
1.530175E-6	-40.13721
1.53022E-6	-38.607508
1.530265E-6	-37.90217
1.53031E-6	-37.739159
1.530355E-6	-37.708303
1.5304E-6	-37.687854
1.530445E-6	-37.670039
1.53049E-6	-37.721133
1.530535E-6	-38.178708
1.53058E-6	-39.476909
1.530625E-6	-41.259243
1.53067E-6	-42.186755
1.530715E-6	-42.353009
1.53076E-6	-42.376216
1.530805E-6	-42.306965
1.53085E-6	-42.011423
1.530895E-6	-39.566377
1.53094E-6	-27.088532
1.530985E-6	-19.982663
1.53103E-6	-16.890944
1.531075E-6	-15.985995
1.53112E-6	-15.795491
1.531165E-6	-15.767541
1.53121E-6	-15.704092
1.531255E-6	-15.851937
1.5313E-6	-17.117508
1.531345E-6	-20.702236
1.53139E-6	-28.784402
1.531435E-6	-37.81202
1.53148E-6	-41.333583
1.531525E-6	-42.115488
1.53157E-6	-42.31806
1.531615E-6	-42.344805
1.53166E-6	-42.28339
1.531705E-6	-41.384656
1.53175E-6	-39.558524
1.531795E-6	-38.147412
1.53184E-6	-37.659892
1.531885E-6	-37.612014
1.53193E-6	-37.639669
1.531975E-6	-37.594508
1.53202E-6	-37.599502
1.532065E-6	-37.695511
1.53211E-6	-38.380334
1.532155E-6	-39.922522
1.5322E-6	-41.652615
1.532245E-6	-42.302535
1.53229E-6	-42.410881
1.532335E-6	-42.395021
1.53238E-6	-42.324731
1.532425E-6	-41.844223
1.53247E-6	-37.2262
1.532515E-6	-24.433357
1.53256E-6	-18.680607
1.532605E-6	-16.35074
1.53265E-6	-15.795491
1.532695E-6	-15.696024
1.53274E-6	-15.707323
1.532785E-6	-15.759355
1.53283E-6	-16.083593
1.532875E-6	-17.825161
1.53292E-6	-22.191069
1.532965E-6	-30.63235
1.53301E-6	-39.023957
1.533055E-6	-41.638025
1.5331E-6	-42.229358
1.533145E-6	-42.344059
1.53319E-6	-42.375465
1.533235E-6	-42.251912
1.53328E-6	-41.212485
1.533325E-6	-39.531148
1.53337E-6	-38.368386
1.533415E-6	-37.977842
1.53346E-6	-37.929045
1.533505E-6	-37.942545
1.53355E-6	-38.002448
1.533595E-6	-38.065971
1.53364E-6	-38.268137
1.533685E-6	-39.041335
1.53373E-6	-40.56555
1.533775E-6	-41.933453
1.53382E-6	-42.410125
1.533865E-6	-42.464935
1.53391E-6	-42.481053
1.533955E-6	-42.347041
1.534E-6	-41.788141
1.534045E-6	-35.767541
1.53409E-6	-23.644157
1.534135E-6	-18.294449
1.53418E-6	-16.185239
1.534225E-6	-15.73977
1.53427E-6	-15.707323
1.534315E-6	-15.826944
1.53436E-6	-15.938006
1.534405E-6	-16.464684
1.53445E-6	-18.677403
1.534495E-6	-23.782008
1.53454E-6	-32.985184
1.534585E-6	-40.052431
1.53463E-6	-41.968161
1.534675E-6	-42.362726
1.53472E-6	-42.472603
1.534765E-6	-42.497231
1.53481E-6	-42.338847
1.534855E-6	-41.444808
1.5349E-6	-40.103278
1.534945E-6	-39.208188
1.53499E-6	-38.968807
1.535035E-6	-38.941493
1.53508E-6	-38.958544
1.535125E-6	-38.992849
1.53517E-6	-39.034376
1.535215E-6	-39.229957
1.53526E-6	-39.97402
1.535305E-6	-41.243022
1.53535E-6	-42.281187
1.535395E-6	-42.541448
1.53544E-6	-42.590849
1.535485E-6	-42.582183
1.53553E-6	-42.432878
1.535575E-6	-41.737308
1.53562E-6	-35.005879
1.535665E-6	-23.244966
1.53571E-6	-18.013429
1.535755E-6	-16.069515
1.5358E-6	-15.679933
1.535845E-6	-15.733261
1.53589E-6	-15.81533
1.535935E-6	-15.931193
1.53598E-6	-16.528652
1.536025E-6	-18.877302
1.53607E-6	-24.124013
1.536115E-6	-33.695721
1.53616E-6	-40.358347
1.536205E-6	-42.055817
1.53625E-6	-42.4443
1.536295E-6	-42.508823
1.53634E-6	-42.549252
1.536385E-6	-42.460341
1.53643E-6	-41.719204
1.536475E-6	-40.601813
1.53652E-6	-39.880069
1.536565E-6	-39.665762
1.53661E-6	-39.653715
1.536655E-6	-39.673812
1.5367E-6	-39.694003
1.536745E-6	-39.702105
1.53679E-6	-39.854795
1.536835E-6	-40.498787
1.53688E-6	-41.543439
1.536925E-6	-42.353756
1.53697E-6	-42.560984
1.537015E-6	-42.57825
1.53706E-6	-42.553159
1.537105E-6	-42.416181
1.53715E-6	-41.728893
1.537195E-6	-35.162701
1.53724E-6	-23.147959
1.537285E-6	-18.133261
1.53733E-6	-16.046736
1.537375E-6	-15.663902
1.53742E-6	-15.627252
1.537465E-6	-15.675117
1.53751E-6	-15.686362
1.537555E-6	-16.176227
1.5376E-6	-18.523237
1.537645E-6	-23.78616
1.53769E-6	-33.282719
1.537735E-6	-40.147981
1.53778E-6	-41.982534
1.537825E-6	-42.373214
1.53787E-6	-42.435921
1.537915E-6	-42.480284
1.53796E-6	-42.407856
1.538005E-6	-41.795358
1.53805E-6	-40.808696
1.538095E-6	-40.101499
1.53814E-6	-39.884296
1.538185E-6	-39.871628
1.53823E-6	-39.850597
1.538275E-6	-39.863203
1.53832E-6	-39.846402
1.538365E-6	-39.97402
1.53841E-6	-40.554186
1.538455E-6	-41.550261
1.5385E-6	-42.278984
1.538545E-6	-42.491832
1.53859E-6	-42.524328
1.538635E-6	-42.491832
1.53868E-6	-42.423763
1.538725E-6	-41.870198
1.53877E-6	-36.395959
1.538815E-6	-24.148778
1.53886E-6	-18.610661
1.538905E-6	-16.343249
1.53895E-6	-15.856953
1.538995E-6	-15.760991
1.53904E-6	-15.713793
1.539085E-6	-15.699249
1.53913E-6	-16.074789
1.539175E-6	-18.088285
1.53922E-6	-22.957637
1.539265E-6	-32.35525
1.53931E-6	-39.796387
1.539355E-6	-41.897675
1.5394E-6	-42.367967
1.539445E-6	-42.455752
1.53949E-6	-42.51192
1.539535E-6	-42.447351
1.53958E-6	-41.844223
1.539625E-6	-40.826521
1.53967E-6	-40.094392
1.539715E-6	-39.838026
1.53976E-6	-39.792245
1.539805E-6	-39.783973
1.53985E-6	-39.771594
1.539895E-6	-39.788107
1.53994E-6	-39.892761
1.539985E-6	-40.441199
1.54003E-6	-41.458762
1.540075E-6	-42.296636
1.54012E-6	-42.545348
1.540165E-6	-42.590061
1.54021E-6	-42.582183
1.540255E-6	-42.523552
1.5403E-6	-42.095741
1.540345E-6	-38.043771
1.54039E-6	-25.268051
1.540435E-6	-19.154237
1.54048E-6	-16.567884
1.540525E-6	-15.892228
1.54057E-6	-15.733261
1.540615E-6	-15.668705
1.54066E-6	-15.627252
1.540705E-6	-15.909126
1.54075E-6	-17.6675
1.540795E-6	-22.009353
1.54084E-6	-30.890023
1.540885E-6	-39.108016
1.54093E-6	-41.811146
1.540975E-6	-42.3905
1.54102E-6	-42.553159
1.541065E-6	-42.58612
1.54111E-6	-42.527436
1.541155E-6	-42.003149
1.5412E-6	-40.898026
1.541245E-6	-39.995659
1.54129E-6	-39.645703
1.541335E-6	-39.570309
1.54138E-6	-39.542859
1.541425E-6	-39.554602
1.54147E-6	-39.550685
1.541515E-6	-39.625735
1.54156E-6	-40.110399
1.541605E-6	-41.147519
1.54165E-6	-42.181011
1.541695E-6	-42.590061
1.54174E-6	-42.666422
1.541785E-6	-42.649603
1.54183E-6	-42.590061
1.541875E-6	-42.261404
1.54192E-6	-39.829667
1.541965E-6	-26.899443
1.54201E-6	-19.867413
1.542055E-6	-16.903698
1.5421E-6	-16.036263
1.542145E-6	-15.86365
1.54219E-6	-15.813673
1.542235E-6	-15.751184
1.54228E-6	-15.878756
1.542325E-6	-17.079656
1.54237E-6	-20.524193
1.542415E-6	-28.425432
1.54246E-6	-37.547342
1.542505E-6	-41.461193
1.54255E-6	-42.374715
1.542595E-6	-42.569608
1.54264E-6	-42.602695
1.542685E-6	-42.602695
1.54273E-6	-42.211255
1.542775E-6	-41.091321
1.54282E-6	-39.995659
1.542865E-6	-39.500071
1.54291E-6	-39.370422
1.542955E-6	-39.359166
1.543E-6	-39.359166
1.543045E-6	-39.370422
1.54309E-6	-39.393022
1.543135E-6	-39.734667
1.54318E-6	-40.669685
1.543225E-6	-41.901038
1.54327E-6	-42.577463
1.543315E-6	-42.704303
1.54336E-6	-42.721336
1.543405E-6	-42.670436
1.54345E-6	-42.462638
1.543495E-6	-41.169066
1.54354E-6	-31.008911
1.543585E-6	-21.458762
1.54363E-6	-17.46662
1.543675E-6	-16.090649
1.54372E-6	-15.821963
1.543765E-6	-15.76918
1.54381E-6	-15.738142
1.543855E-6	-15.795491
1.5439E-6	-16.607474
1.543945E-6	-19.476909
1.54399E-6	-25.965363
1.544035E-6	-35.562678
1.54408E-6	-40.932879
1.544125E-6	-42.300322
1.54417E-6	-42.623304
1.544215E-6	-42.69137
1.54426E-6	-42.708352
1.544305E-6	-42.483361
1.54435E-6	-41.465452
1.544395E-6	-40.191788
1.54444E-6	-39.461536
1.544485E-6	-39.292235
1.54453E-6	-39.277501
1.544575E-6	-39.266483
1.54462E-6	-39.259153
1.544665E-6	-39.28118
1.54471E-6	-39.473061
1.544755E-6	-40.24982
1.5448E-6	-41.596429
1.544845E-6	-42.55707
1.54489E-6	-42.795099
1.544935E-6	-42.812493
1.54498E-6	-42.786841
1.545025E-6	-42.674454
1.54507E-6	-42.03495
1.545115E-6	-35.450028
1.54516E-6	-23.78616
1.545205E-6	-18.572978
1.54525E-6	-16.443569
1.545295E-6	-15.949953
1.54534E-6	-15.883803
1.545385E-6	-15.893915
1.54543E-6	-15.865326
1.545475E-6	-16.221476
1.54552E-6	-18.074325
1.545565E-6	-22.804201
1.54561E-6	-31.314731
1.545655E-6	-39.601894
1.5457E-6	-42.090818
1.545745E-6	-42.653602
1.54579E-6	-42.773661
1.545835E-6	-42.834958
1.54588E-6	-42.755603
1.545925E-6	-42.067686
1.54597E-6	-40.685421
1.546015E-6	-39.698052
1.54606E-6	-39.347939
1.546105E-6	-39.288547
1.54615E-6	-39.284862
1.546195E-6	-39.273825
1.54624E-6	-39.262816
1.546285E-6	-39.35542
1.54633E-6	-39.884296
1.546375E-6	-41.074046
1.54642E-6	-42.347041
1.546465E-6	-42.830789
1.54651E-6	-42.89375
1.546555E-6	-42.902214
1.5466E-6	-42.883615
1.546645E-6	-42.582183
1.54669E-6	-40.334828
1.546735E-6	-28.706324
1.54678E-6	-20.46772
1.546825E-6	-17.20105
1.54687E-6	-16.212388
1.546915E-6	-16.032777
1.54696E-6	-15.977386
1.547005E-6	-15.956795
1.54705E-6	-16.115435
1.547095E-6	-17.180581
1.54714E-6	-20.535969
1.547185E-6	-27.961515
1.54723E-6	-37.281584
1.547275E-6	-41.620961
1.54732E-6	-42.602695
1.547365E-6	-42.861736
1.54741E-6	-42.89798
1.547455E-6	-42.879399
1.5475E-6	-42.544568
1.547545E-6	-41.389438
1.54759E-6	-40.089069
1.547635E-6	-39.484616
1.54768E-6	-39.347939
1.547725E-6	-39.333014
1.54777E-6	-39.344203
1.547815E-6	-39.35542
1.54786E-6	-39.377942
1.547905E-6	-39.637705
1.54795E-6	-40.560111
1.547995E-6	-41.885591
1.54804E-6	-42.739251
1.548085E-6	-42.96107
1.54813E-6	-43.025963
1.548175E-6	-42.979143
1.54822E-6	-42.834958
1.548265E-6	-42.011423
1.54831E-6	-34.073792
1.548355E-6	-22.988639
1.5484E-6	-18.389316
1.548445E-6	-16.5738
1.54849E-6	-16.205132
1.548535E-6	-16.115435
1.54858E-6	-16.108339
1.548625E-6	-16.108339
1.54867E-6	-16.507225
1.548715E-6	-18.560489
1.54876E-6	-23.527149
1.548805E-6	-32.842473
1.54885E-6	-40.219565
1.548895E-6	-42.341825
1.54894E-6	-42.827457
1.548985E-6	-42.943928
1.54903E-6	-42.952491
1.549075E-6	-42.886146
1.54912E-6	-42.183164
1.549165E-6	-40.829148
1.54921E-6	-39.812995
1.549255E-6	-39.469216
1.5493E-6	-39.385475
1.549345E-6	-39.366666
1.54939E-6	-39.385475
1.549435E-6	-39.381707
1.54948E-6	-39.442395
1.549525E-6	-39.948195
1.54957E-6	-41.114274
1.549615E-6	-42.398038
1.54966E-6	-42.944784
1.549705E-6	-43.055703
1.54975E-6	-43.036436
1.549795E-6	-42.986047
1.54984E-6	-42.684112
1.549885E-6	-40.765487
1.54993E-6	-29.226321
1.549975E-6	-20.735547
1.55002E-6	-17.32359
1.550065E-6	-16.322715
1.55011E-6	-16.129663
1.550155E-6	-16.103025
1.5502E-6	-16.094181
1.550245E-6	-16.172627
1.55029E-6	-16.914356
1.550335E-6	-19.714287
1.55038E-6	-26.22876
1.550425E-6	-36.029295
1.55047E-6	-41.315907
1.550515E-6	-42.616952
1.55056E-6	-42.905604
1.550605E-6	-42.968807
1.55065E-6	-43.005959
1.550695E-6	-42.745784
1.55074E-6	-41.655793
1.550785E-6	-40.332015
1.55083E-6	-39.590023
1.550875E-6	-39.377942
1.55092E-6	-39.34047
1.550965E-6	-39.321855
1.55101E-6	-39.314431
1.551055E-6	-39.34047
1.5511E-6	-39.511699
1.551145E-6	-40.263181
1.55119E-6	-41.603963
1.551235E-6	-42.680086
1.55128E-6	-43.001623
1.551325E-6	-43.039058
1.55137E-6	-43.029451
1.551415E-6	-42.924298
1.55146E-6	-42.42604
1.551505E-6	-37.644716
1.55155E-6	-24.975729
1.551595E-6	-19.266483
1.55164E-6	-16.867657
1.551685E-6	-16.243364
1.55173E-6	-16.151092
1.551775E-6	-16.149302
1.55182E-6	-16.106567
1.551865E-6	-16.29117
1.55191E-6	-17.762445
1.551955E-6	-21.638025
1.552E-6	-29.511699
1.552045E-6	-38.648673
1.55209E-6	-41.996266
1.552135E-6	-42.803373
1.55218E-6	-42.947351
1.552225E-6	-42.993828
1.55227E-6	-42.975695
1.552315E-6	-42.520447
1.55236E-6	-41.192436
1.552405E-6	-39.943906
1.55245E-6	-39.393022
1.552495E-6	-39.266483
1.55254E-6	-39.273825
1.552585E-6	-39.273825
1.55263E-6	-39.273825
1.552675E-6	-39.295927
1.55272E-6	-39.617774
1.552765E-6	-40.636371
1.55281E-6	-42.033563
1.552855E-6	-42.892904
1.5529E-6	-43.068009
1.552945E-6	-43.077702
1.55299E-6	-43.058337
1.553035E-6	-42.892904
1.55308E-6	-41.959969
1.553125E-6	-33.52617
1.55317E-6	-22.600323
1.553215E-6	-18.201611
1.55326E-6	-16.455074
1.553305E-6	-16.097716
1.55335E-6	-16.024076
1.553395E-6	-15.998075
1.55344E-6	-16.010189
1.553485E-6	-16.411138
1.55353E-6	-18.422411
1.553575E-6	-23.171332
1.55362E-6	-32.105603
1.553665E-6	-39.901244
1.55371E-6	-42.329184
1.553755E-6	-42.887835
1.5538E-6	-43.025963
1.553845E-6	-43.053071
1.55389E-6	-42.960212
1.553935E-6	-42.204035
1.55398E-6	-40.743785
1.554025E-6	-39.681877
1.55407E-6	-39.288547
1.554115E-6	-39.240882
1.55416E-6	-39.200955
1.554205E-6	-39.179331
1.55425E-6	-39.19013
1.554295E-6	-39.262816
1.55434E-6	-39.726504
1.554385E-6	-40.924274
1.55443E-6	-42.353009
1.554475E-6	-42.979143
1.55452E-6	-43.100699
1.554565E-6	-43.090954
1.55461E-6	-43.068009
1.554655E-6	-42.835793
1.5547E-6	-41.311793
1.554745E-6	-30.237876
1.55479E-6	-21.295961
1.554835E-6	-17.687854
1.55488E-6	-16.458916
1.554925E-6	-16.210573
1.55497E-6	-16.152883
1.555015E-6	-16.120765
1.55506E-6	-16.13501
1.555105E-6	-16.665527
1.55515E-6	-18.985966
1.555195E-6	-24.816177
1.55524E-6	-34.933597
1.555285E-6	-40.8302
1.55533E-6	-42.621715
1.555375E-6	-43.028579
1.55542E-6	-43.099812
1.555465E-6	-43.113133
1.55551E-6	-42.94564
1.555555E-6	-41.949071
1.5556E-6	-40.438796
1.555645E-6	-39.492337
1.55569E-6	-39.182927
1.555735E-6	-39.108016
1.55578E-6	-39.08333
1.555825E-6	-39.076303
1.55587E-6	-39.100949
1.555915E-6	-39.208188
1.55596E-6	-39.775716
1.556005E-6	-41.086298
1.55605E-6	-42.458811
1.556095E-6	-43.038184
1.55614E-6	-43.139002
1.556185E-6	-43.144374
1.55623E-6	-43.086532
1.556275E-6	-42.768728
1.55632E-6	-40.486139
1.556365E-6	-28.06041
1.55641E-6	-20.459023
1.556455E-6	-17.307206
1.5565E-6	-16.328305
1.556545E-6	-16.110112
1.55659E-6	-16.094181
1.556635E-6	-16.080069
1.55668E-6	-16.131445
1.556725E-6	-16.829819
1.55677E-6	-19.465374
1.556815E-6	-25.898979
1.55686E-6	-35.826944
1.556905E-6	-41.19015
1.55695E-6	-42.749873
1.556995E-6	-43.082115
1.55704E-6	-43.13185
1.557085E-6	-43.144374
1.55713E-6	-42.92515
1.557175E-6	-41.887602
1.55722E-6	-40.362122
1.557265E-6	-39.465374
1.55731E-6	-39.19013
1.557355E-6	-39.143527
1.5574E-6	-39.139963
1.557445E-6	-39.147094
1.55749E-6	-39.164974
1.557535E-6	-39.28118
1.55758E-6	-39.913998
1.557625E-6	-41.262145
1.55767E-6	-42.594005
1.557715E-6	-43.109577
1.55776E-6	-43.204813
1.557805E-6	-43.191208
1.55785E-6	-43.116692
1.557895E-6	-42.772838
1.55794E-6	-40.24798
1.557985E-6	-27.321246
1.55803E-6	-20.214999
1.558075E-6	-17.21475
1.55812E-6	-16.219657
1.558165E-6	-16.022337
1.55821E-6	-16.004993
1.558255E-6	-16.024076
1.5583E-6	-16.092415
1.558345E-6	-16.857113
1.55839E-6	-19.621752
1.558435E-6	-26.092415
1.55848E-6	-36.010189
1.558525E-6	-41.291281
1.55857E-6	-42.839131
1.558615E-6	-43.134531
1.55866E-6	-43.190303
1.558705E-6	-43.199366
1.55875E-6	-43.000756
1.558795E-6	-41.952474
1.55884E-6	-40.504148
1.558885E-6	-39.613798
1.55893E-6	-39.366666
1.558975E-6	-39.336741
1.55902E-6	-39.344203
1.559065E-6	-39.359166
1.55911E-6	-39.362914
1.559155E-6	-39.480761
1.5592E-6	-40.084638
1.559245E-6	-41.39183
1.55929E-6	-42.684918
1.559335E-6	-43.189398
1.55938E-6	-43.264262
1.559425E-6	-43.248635
1.55947E-6	-43.209357
1.559515E-6	-42.912393
1.55956E-6	-40.668672
1.559605E-6	-28.320922
1.55965E-6	-20.56456
1.559695E-6	-17.366007
1.55974E-6	-16.333903
1.559785E-6	-16.167233
1.55983E-6	-16.196078
1.559875E-6	-16.259853
1.55992E-6	-16.348866
1.559965E-6	-17.108572
1.56001E-6	-19.982663
1.560055E-6	-26.734593
1.5601E-6	-36.689778
1.560145E-6	-41.548399
1.56019E-6	-42.944784
1.560235E-6	-43.23215
1.56028E-6	-43.296614
1.560325E-6	-43.317073
1.56037E-6	-43.148855
1.560415E-6	-42.221384
1.56046E-6	-40.82232
1.560505E-6	-39.97402
1.56055E-6	-39.726504
1.560595E-6	-39.718356
1.56064E-6	-39.718356
1.560685E-6	-39.730584
1.56073E-6	-39.734667
1.560775E-6	-39.838026
1.56082E-6	-40.411495
1.560865E-6	-41.621591
1.56091E-6	-42.8208
1.560955E-6	-43.273481
1.561E-6	-43.336693
1.561045E-6	-43.320803
1.56109E-6	-43.284569
1.561135E-6	-43.000756
1.56118E-6	-41.089088
1.561225E-6	-28.951716
1.56127E-6	-20.671205
1.561315E-6	-17.279262
1.56136E-6	-16.214204
1.561405E-6	-16.07303
1.56145E-6	-16.101254
1.561495E-6	-16.163641
1.56154E-6	-16.252517
1.561585E-6	-16.90157
1.56163E-6	-19.488475
1.561675E-6	-25.62091
1.56172E-6	-35.731635
1.561765E-6	-41.270866
1.56181E-6	-42.908997
1.561855E-6	-43.251389
1.5619E-6	-43.336693
1.561945E-6	-43.35264
1.56199E-6	-43.2468
1.562035E-6	-42.565686
1.56208E-6	-41.372725
1.562125E-6	-40.491485
1.56217E-6	-40.212262
1.562215E-6	-40.158779
1.56226E-6	-40.165541
1.562305E-6	-40.163737
1.56235E-6	-40.186345
1.562395E-6	-40.24844
1.56244E-6	-40.6778
1.562485E-6	-41.653886
1.56253E-6	-42.753146
1.562575E-6	-43.2468
1.56262E-6	-43.329208
1.562665E-6	-43.347944
1.56271E-6	-43.318938
1.562755E-6	-43.125602
1.5628E-6	-41.909793
1.562845E-6	-31.705033
1.56289E-6	-21.569542
1.562935E-6	-17.582046
1.56298E-6	-16.154674
1.563025E-6	-15.944829
1.56307E-6	-15.989443
1.563115E-6	-16.053732
1.56316E-6	-16.14215
1.563205E-6	-16.611453
1.56325E-6	-18.722475
1.563295E-6	-23.826851
1.56334E-6	-33.089185
1.563385E-6	-40.41962
1.56343E-6	-42.628074
1.563475E-6	-43.224843
