Wavelength (nm)	Power (dBm)
1.525E-6	-49.913998
1.525045E-6	-49.783973
1.52509E-6	-49.689957
1.525135E-6	-49.633711
1.52518E-6	-49.574245
1.525225E-6	-49.465374
1.52527E-6	-49.359166
1.525315E-6	-49.255493
1.52536E-6	-49.154237
1.525405E-6	-49.041335
1.52545E-6	-48.91435
1.525495E-6	-48.754958
1.52554E-6	-48.560489
1.525585E-6	-48.389316
1.52563E-6	-48.265224
1.525675E-6	-48.147412
1.52572E-6	-48.029953
1.525765E-6	-47.920965
1.52581E-6	-47.827793
1.525855E-6	-47.762445
1.5259E-6	-47.79369
1.525945E-6	-47.809397
1.52599E-6	-47.785858
1.526035E-6	-47.726276
1.52608E-6	-47.647241
1.526125E-6	-47.564659
1.52617E-6	-47.486051
1.526215E-6	-47.387371
1.52626E-6	-47.2262
1.526305E-6	-47.000571
1.52635E-6	-46.786087
1.526395E-6	-46.659486
1.52644E-6	-46.563945
1.526485E-6	-46.462761
1.52653E-6	-46.395959
1.526575E-6	-46.313413
1.52662E-6	-46.26904
1.526665E-6	-46.318991
1.52671E-6	-46.432095
1.526755E-6	-46.487837
1.5268E-6	-46.460838
1.526845E-6	-46.409238
1.52689E-6	-46.35449
1.526935E-6	-46.304131
1.52698E-6	-46.214204
1.527025E-6	-46.067759
1.52707E-6	-45.81533
1.527115E-6	-45.562678
1.52716E-6	-45.394028
1.527205E-6	-45.323919
1.52725E-6	-45.287083
1.527295E-6	-45.179844
1.52734E-6	-45.134278
1.527385E-6	-45.114493
1.52743E-6	-45.234582
1.527475E-6	-45.463759
1.52752E-6	-45.597208
1.527565E-6	-45.62091
1.52761E-6	-45.636783
1.527655E-6	-45.55799
1.5277E-6	-45.581478
1.527745E-6	-45.469876
1.52779E-6	-45.427238
1.527835E-6	-45.144205
1.52788E-6	-44.85054
1.527925E-6	-44.650859
1.52797E-6	-44.546929
1.528015E-6	-44.569258
1.52806E-6	-44.555599
1.528105E-6	-44.487941
1.52815E-6	-44.492826
1.528195E-6	-44.597957
1.52824E-6	-44.887853
1.528285E-6	-45.171264
1.52833E-6	-45.272436
1.528375E-6	-45.282683
1.52842E-6	-45.272436
1.528465E-6	-45.249102
1.52851E-6	-45.228787
1.528555E-6	-45.243288
1.5286E-6	-45.010006
1.528645E-6	-44.655931
1.52869E-6	-44.399738
1.528735E-6	-44.284076
1.52878E-6	-44.308603
1.528825E-6	-44.280584
1.52887E-6	-44.282912
1.528915E-6	-44.258529
1.52896E-6	-44.371126
1.529005E-6	-44.681381
1.52905E-6	-45.068209
1.529095E-6	-45.262212
1.52914E-6	-45.281218
1.529185E-6	-45.295895
1.52923E-6	-45.294425
1.529275E-6	-45.31505
1.52932E-6	-45.326879
1.529365E-6	-45.185574
1.52941E-6	-44.834646
1.529455E-6	-44.474535
1.5295E-6	-44.352156
1.529545E-6	-44.352156
1.52959E-6	-44.358075
1.529635E-6	-44.336804
1.52968E-6	-44.365189
1.529725E-6	-44.429743
1.52977E-6	-44.672456
1.529815E-6	-45.061239
1.52986E-6	-45.398542
1.529905E-6	-45.472938
1.52995E-6	-45.446982
1.529995E-6	-45.472938
1.53004E-6	-45.486742
1.530085E-6	-45.512937
1.53013E-6	-45.451551
1.530175E-6	-45.120137
1.53022E-6	-44.677554
1.530265E-6	-44.528409
1.53031E-6	-44.470885
1.530355E-6	-44.490382
1.5304E-6	-44.49894
1.530445E-6	-44.55312
1.53049E-6	-44.532106
1.530535E-6	-44.695442
1.53058E-6	-45.093393
1.530625E-6	-45.485206
1.53067E-6	-45.632015
1.530715E-6	-45.655908
1.53076E-6	-45.684754
1.530805E-6	-45.673513
1.53085E-6	-45.655908
1.530895E-6	-45.622494
1.53094E-6	-45.407583
1.530985E-6	-44.963455
1.53103E-6	-44.681381
1.531075E-6	-44.640733
1.53112E-6	-44.619292
1.531165E-6	-44.639468
1.53121E-6	-44.625587
1.531255E-6	-44.648325
1.5313E-6	-44.721124
1.531345E-6	-45.07519
1.53139E-6	-45.491353
1.531435E-6	-45.710557
1.53148E-6	-45.797141
1.531525E-6	-45.772461
1.53157E-6	-45.774102
1.531615E-6	-45.803746
1.53166E-6	-45.813673
1.531705E-6	-45.625666
1.53175E-6	-45.259295
1.531795E-6	-44.897232
1.53184E-6	-44.730149
1.531885E-6	-44.763836
1.53193E-6	-44.749552
1.531975E-6	-44.732731
1.53202E-6	-44.719837
1.532065E-6	-44.789927
1.53211E-6	-45.048721
1.532155E-6	-45.477534
1.5322E-6	-45.808707
1.532245E-6	-45.861975
1.53229E-6	-45.920995
1.532335E-6	-45.927791
1.53238E-6	-45.949953
1.532425E-6	-45.915904
1.53247E-6	-45.848596
1.532515E-6	-45.58462
1.53256E-6	-45.137112
1.532605E-6	-44.90663
1.53265E-6	-44.899915
1.532695E-6	-44.89321
1.53274E-6	-44.867824
1.532785E-6	-44.901257
1.53283E-6	-44.929541
1.532875E-6	-45.055671
1.53292E-6	-45.440898
1.532965E-6	-45.848596
1.53301E-6	-46.015392
1.533055E-6	-46.053732
1.5331E-6	-46.032777
1.533145E-6	-46.080069
1.53319E-6	-46.07303
1.533235E-6	-46.006725
1.53328E-6	-45.820304
1.533325E-6	-45.479068
1.53337E-6	-45.221555
1.533415E-6	-45.118725
1.53346E-6	-45.071
1.533505E-6	-45.077985
1.53355E-6	-45.076587
1.533595E-6	-45.124374
1.53364E-6	-45.192746
1.533685E-6	-45.434821
1.53373E-6	-45.787252
1.533775E-6	-46.062494
1.53382E-6	-46.129663
1.533865E-6	-46.136794
1.53391E-6	-46.188849
1.533955E-6	-46.178028
1.534E-6	-46.206945
1.534045E-6	-46.103025
1.53409E-6	-45.835259
1.534135E-6	-45.533075
1.53418E-6	-45.364056
1.534225E-6	-45.303252
1.53427E-6	-45.294425
1.534315E-6	-45.341712
1.53436E-6	-45.352125
1.534405E-6	-45.353614
1.53445E-6	-45.525319
1.534495E-6	-45.825283
1.53454E-6	-46.161846
1.534585E-6	-46.26904
1.53463E-6	-46.300424
1.534675E-6	-46.287474
1.53472E-6	-46.283781
1.534765E-6	-46.333903
1.53481E-6	-46.311555
1.534855E-6	-46.120765
1.5349E-6	-45.825283
1.534945E-6	-45.575202
1.53499E-6	-45.553308
1.535035E-6	-45.52222
1.53508E-6	-45.529971
1.535125E-6	-45.517576
1.53517E-6	-45.575202
1.535215E-6	-45.601938
1.53526E-6	-45.853609
1.535305E-6	-46.152883
1.53535E-6	-46.324577
1.535395E-6	-46.382722
1.53544E-6	-46.401645
1.535485E-6	-46.432095
1.53553E-6	-46.371407
1.535575E-6	-46.394066
1.53562E-6	-46.313413
1.535665E-6	-46.076548
1.53571E-6	-45.820304
1.535755E-6	-45.712175
1.5358E-6	-45.700863
1.535845E-6	-45.679933
1.53589E-6	-45.676722
1.535935E-6	-45.697636
1.53598E-6	-45.721894
1.536025E-6	-45.818645
1.53607E-6	-46.062494
1.536115E-6	-46.313413
1.53616E-6	-46.439741
1.536205E-6	-46.449318
1.53625E-6	-46.439741
1.536295E-6	-46.458916
1.53634E-6	-46.397854
1.536385E-6	-46.435917
1.53643E-6	-46.280091
1.536475E-6	-46.006725
1.53652E-6	-45.807053
1.536565E-6	-45.746288
1.53661E-6	-45.723516
1.536655E-6	-45.757719
1.5367E-6	-45.760991
1.536745E-6	-45.73977
1.53679E-6	-45.803746
1.536835E-6	-45.977386
1.53688E-6	-46.239708
1.536925E-6	-46.373291
1.53697E-6	-46.422557
1.537015E-6	-46.418747
1.53706E-6	-46.394066
1.537105E-6	-46.42637
1.53715E-6	-46.424463
1.537195E-6	-46.367642
1.53724E-6	-46.131445
1.537285E-6	-45.873715
1.53733E-6	-45.775743
1.537375E-6	-45.765903
1.53742E-6	-45.760991
1.537465E-6	-45.76918
1.53751E-6	-45.73001
1.537555E-6	-45.760991
1.5376E-6	-45.861975
1.537645E-6	-46.071273
1.53769E-6	-46.29672
1.537735E-6	-46.373291
1.53778E-6	-46.365761
1.537825E-6	-46.395959
1.53787E-6	-46.378947
1.537915E-6	-46.339508
1.53796E-6	-46.365761
1.538005E-6	-46.187044
1.53805E-6	-45.951663
1.538095E-6	-45.792194
1.53814E-6	-45.712175
1.538185E-6	-45.707323
1.53823E-6	-45.744658
1.538275E-6	-45.705707
1.53832E-6	-45.692801
1.538365E-6	-45.746288
1.53841E-6	-45.900669
1.538455E-6	-46.145725
1.5385E-6	-46.317131
1.538545E-6	-46.367642
1.53859E-6	-46.333903
1.538635E-6	-46.324577
1.53868E-6	-46.339508
1.538725E-6	-46.318991
1.53877E-6	-46.274562
1.538815E-6	-46.055483
1.53886E-6	-45.81533
1.538905E-6	-45.692801
1.53895E-6	-45.667103
1.538995E-6	-45.699249
1.53904E-6	-45.670307
1.539085E-6	-45.67191
1.53913E-6	-45.667103
1.539175E-6	-45.757719
1.53922E-6	-46.004993
1.539265E-6	-46.210573
1.53931E-6	-46.29672
1.539355E-6	-46.311555
1.5394E-6	-46.322715
1.539445E-6	-46.332036
1.53949E-6	-46.324577
1.539535E-6	-46.313413
1.53958E-6	-46.152883
1.539625E-6	-45.915904
1.53967E-6	-45.720273
1.539715E-6	-45.649524
1.53976E-6	-45.649524
1.539805E-6	-45.617742
1.53985E-6	-45.647929
1.539895E-6	-45.652715
1.53994E-6	-45.654311
1.539985E-6	-45.830268
1.54003E-6	-46.092415
1.540075E-6	-46.258017
1.54012E-6	-46.285627
1.540165E-6	-46.293019
1.54021E-6	-46.337639
1.540255E-6	-46.309698
1.5403E-6	-46.293019
1.540345E-6	-46.239708
1.54039E-6	-46.029295
1.540435E-6	-45.785606
1.54048E-6	-45.647929
1.540525E-6	-45.601938
1.54057E-6	-45.614577
1.540615E-6	-45.592483
1.54066E-6	-45.587763
1.540705E-6	-45.617742
1.54075E-6	-45.686362
1.540795E-6	-45.902359
1.54084E-6	-46.152883
1.540885E-6	-46.267201
1.54093E-6	-46.293019
1.540975E-6	-46.300424
1.54102E-6	-46.315272
1.541065E-6	-46.305986
1.54111E-6	-46.272721
1.541155E-6	-46.174427
1.5412E-6	-45.927791
1.541245E-6	-45.662302
1.54129E-6	-45.573635
1.541335E-6	-45.562678
1.54138E-6	-45.547072
1.541425E-6	-45.547072
1.54147E-6	-45.570501
1.541515E-6	-45.592483
1.54156E-6	-45.746288
1.541605E-6	-45.998075
1.54165E-6	-46.217839
1.541695E-6	-46.307841
1.54174E-6	-46.313413
1.541785E-6	-46.304131
1.54183E-6	-46.309698
1.541875E-6	-46.332036
1.54192E-6	-46.254349
1.541965E-6	-46.080069
1.54201E-6	-45.788899
1.542055E-6	-45.616159
1.5421E-6	-45.537736
1.542145E-6	-45.519123
1.54219E-6	-45.529971
1.542235E-6	-45.542402
1.54228E-6	-45.564241
1.542325E-6	-45.622494
1.54237E-6	-45.812017
1.542415E-6	-46.094181
1.54246E-6	-46.250684
1.542505E-6	-46.320853
1.54255E-6	-46.341378
1.542595E-6	-46.313413
1.54264E-6	-46.318991
1.542685E-6	-46.341378
1.54273E-6	-46.256183
1.542775E-6	-46.0206
1.54282E-6	-45.726762
1.542865E-6	-45.586191
1.54291E-6	-45.542402
1.542955E-6	-45.553308
1.543E-6	-45.550189
1.543045E-6	-45.562678
1.54309E-6	-45.564241
1.543135E-6	-45.728386
1.54318E-6	-45.975667
1.543225E-6	-46.243364
1.54327E-6	-46.35449
1.543315E-6	-46.382722
1.54336E-6	-46.392173
1.543405E-6	-46.382722
1.54345E-6	-46.395959
1.543495E-6	-46.356366
1.54354E-6	-46.237881
1.543585E-6	-45.951663
1.54363E-6	-45.694412
1.543675E-6	-45.614577
1.54372E-6	-45.592483
1.543765E-6	-45.601938
1.54381E-6	-45.641556
1.543855E-6	-45.608253
1.5439E-6	-45.625666
1.543945E-6	-45.805399
1.54399E-6	-46.131445
1.544035E-6	-46.3865
1.54408E-6	-46.449318
1.544125E-6	-46.449318
1.54417E-6	-46.443569
1.544215E-6	-46.468535
1.54426E-6	-46.482037
1.544305E-6	-46.430186
1.54435E-6	-46.23423
1.544395E-6	-45.905741
1.54444E-6	-45.736514
1.544485E-6	-45.686362
1.54453E-6	-45.679933
1.544575E-6	-45.687971
1.54462E-6	-45.700863
1.544665E-6	-45.718652
1.54471E-6	-45.760991
1.544755E-6	-45.996347
1.5448E-6	-46.317131
1.544845E-6	-46.495581
1.54489E-6	-46.540385
1.544935E-6	-46.50334
1.54498E-6	-46.495581
1.545025E-6	-46.343249
1.54507E-6	-45.511392
1.545115E-6	-38.002448
1.54516E-6	-26.671577
1.545205E-6	-21.131146
1.54525E-6	-18.880657
1.545295E-6	-18.359447
1.54534E-6	-18.265224
1.545385E-6	-18.244882
1.54543E-6	-18.273971
1.545475E-6	-18.626459
1.54552E-6	-20.521253
1.545565E-6	-25.364056
1.54561E-6	-34.57299
1.545655E-6	-42.66883
1.5457E-6	-45.699249
1.545745E-6	-46.394066
1.54579E-6	-46.554113
1.545835E-6	-46.615435
1.54588E-6	-46.613443
1.545925E-6	-46.507225
1.54597E-6	-46.225116
1.546015E-6	-45.955084
1.54606E-6	-45.858626
1.546105E-6	-45.84359
1.54615E-6	-45.848596
1.546195E-6	-45.836924
1.54624E-6	-45.833595
1.546285E-6	-45.86365
1.54633E-6	-46.029295
1.546375E-6	-46.313413
1.54642E-6	-46.571827
1.546465E-6	-46.639407
1.54651E-6	-46.663512
1.546555E-6	-46.655462
1.5466E-6	-46.615435
1.546645E-6	-46.280091
1.54669E-6	-44.148778
1.546735E-6	-31.658337
1.54678E-6	-23.114912
1.546825E-6	-19.734667
1.54687E-6	-18.59492
1.546915E-6	-18.401322
1.54696E-6	-18.359447
1.547005E-6	-18.350526
1.54705E-6	-18.474059
1.547095E-6	-19.469216
1.54714E-6	-22.864255
1.547185E-6	-29.854795
1.54723E-6	-39.694003
1.547275E-6	-45.015516
1.54732E-6	-46.333903
1.547365E-6	-46.631402
1.54741E-6	-46.695862
1.547455E-6	-46.722325
1.5475E-6	-46.667543
1.547545E-6	-46.443569
1.54759E-6	-46.160052
1.547635E-6	-45.985995
1.54768E-6	-45.931193
1.547725E-6	-45.929492
1.54777E-6	-45.9176
1.547815E-6	-45.929492
1.54786E-6	-45.948245
1.547905E-6	-46.0206
1.54795E-6	-46.256183
1.547995E-6	-46.548224
1.54804E-6	-46.712128
1.548085E-6	-46.751005
1.54813E-6	-46.757175
1.548175E-6	-46.7305
1.54822E-6	-46.569855
1.548265E-6	-45.736514
1.54831E-6	-38.495506
1.548355E-6	-26.120765
1.5484E-6	-20.934495
1.548445E-6	-18.884015
1.54849E-6	-18.398317
1.548535E-6	-18.344589
1.54858E-6	-18.306195
1.548625E-6	-18.309136
1.54867E-6	-18.712777
1.548715E-6	-20.691528
1.54876E-6	-25.738142
1.548805E-6	-35.412111
1.54885E-6	-43.061851
1.548895E-6	-45.888856
1.54894E-6	-46.563945
1.548985E-6	-46.706021
1.54903E-6	-46.726411
1.549075E-6	-46.712128
1.54912E-6	-46.605486
1.549165E-6	-46.333903
1.54921E-6	-46.066003
1.549255E-6	-45.938006
1.5493E-6	-45.907433
1.549345E-6	-45.90405
1.54939E-6	-45.914209
1.549435E-6	-45.905741
1.54948E-6	-45.926091
1.549525E-6	-46.06074
1.54957E-6	-46.341378
1.549615E-6	-46.603498
1.54966E-6	-46.708056
1.549705E-6	-46.7305
1.54975E-6	-46.708056
1.549795E-6	-46.643415
1.54984E-6	-46.322715
1.549885E-6	-44.508741
1.54993E-6	-32.423763
1.549975E-6	-23.379036
1.55002E-6	-19.673812
1.550065E-6	-18.416375
1.55011E-6	-18.215987
1.550155E-6	-18.155925
1.5502E-6	-18.153086
1.550245E-6	-18.187282
1.55029E-6	-18.910969
1.550335E-6	-21.705676
1.55038E-6	-28.377344
1.550425E-6	-38.938091
1.55047E-6	-44.430947
1.550515E-6	-46.156466
1.55056E-6	-46.548224
1.550605E-6	-46.629403
1.55065E-6	-46.651443
1.550695E-6	-46.629403
1.55074E-6	-46.441655
1.550785E-6	-46.115435
1.55083E-6	-45.878756
1.550875E-6	-45.803746
1.55092E-6	-45.788899
1.550965E-6	-45.798792
1.55101E-6	-45.788899
1.551055E-6	-45.783961
1.5511E-6	-45.818645
1.551145E-6	-46.0206
1.55119E-6	-46.35074
1.551235E-6	-46.585655
1.55128E-6	-46.639407
1.551325E-6	-46.637404
1.55137E-6	-46.623411
1.551415E-6	-46.621416
1.55146E-6	-46.631402
1.551505E-6	-46.579723
1.55155E-6	-46.33577
1.551595E-6	-45.982549
1.55164E-6	-45.774102
1.551685E-6	-45.717032
1.55173E-6	-45.712175
1.551775E-6	-45.710557
1.55182E-6	-45.707323
1.551865E-6	-45.696024
1.55191E-6	-45.756084
1.551955E-6	-45.998075
1.552E-6	-46.348866
1.552045E-6	-46.550186
1.55209E-6	-46.587634
1.552135E-6	-46.577748
1.55218E-6	-46.579723
1.552225E-6	-46.583677
1.55227E-6	-46.5738
1.552315E-6	-46.491707
1.55236E-6	-46.214204
1.552405E-6	-45.865326
1.55245E-6	-45.689581
1.552495E-6	-45.649524
1.55254E-6	-45.665502
1.552585E-6	-45.663902
1.55263E-6	-45.644741
1.552675E-6	-45.630427
1.55272E-6	-45.731635
1.552765E-6	-46.011923
1.55281E-6	-46.341378
1.552855E-6	-46.505282
1.5529E-6	-46.538427
1.552945E-6	-46.528652
1.55299E-6	-46.538427
1.553035E-6	-46.530605
1.55308E-6	-46.532559
1.553125E-6	-46.414941
1.55317E-6	-46.078309
1.553215E-6	-45.762628
1.55326E-6	-45.62091
1.553305E-6	-45.595632
1.55335E-6	-45.595632
1.553395E-6	-45.572068
1.55344E-6	-45.559552
1.553485E-6	-45.56737
1.55353E-6	-45.689581
1.553575E-6	-46.017127
1.55362E-6	-46.322715
1.553665E-6	-46.466609
1.55371E-6	-46.478175
1.553755E-6	-46.485902
1.5538E-6	-46.499459
1.553845E-6	-46.50334
1.55389E-6	-46.474316
1.553935E-6	-46.337639
1.55398E-6	-45.996347
1.554025E-6	-45.696024
1.55407E-6	-45.565805
1.554115E-6	-45.545515
1.55416E-6	-45.534628
1.554205E-6	-45.525319
1.55425E-6	-45.502132
1.554295E-6	-45.531523
1.55434E-6	-45.673513
1.554385E-6	-45.987718
1.55443E-6	-46.317131
1.554475E-6	-46.443569
1.55452E-6	-46.458916
1.554565E-6	-46.470461
1.55461E-6	-46.472388
1.554655E-6	-46.476245
1.5547E-6	-46.439741
1.554745E-6	-46.278247
1.55479E-6	-45.938006
1.554835E-6	-45.636783
1.55488E-6	-45.511392
1.554925E-6	-45.469876
1.55497E-6	-45.456125
1.555015E-6	-45.439378
1.55506E-6	-45.450028
1.555105E-6	-45.480601
1.55515E-6	-45.651119
1.555195E-6	-45.992894
1.55524E-6	-46.302277
1.555285E-6	-46.413039
1.55533E-6	-46.434006
1.555375E-6	-46.443569
1.55542E-6	-46.435917
1.555465E-6	-46.437829
1.55551E-6	-46.40544
1.555555E-6	-46.221476
1.5556E-6	-45.870357
1.555645E-6	-45.572068
1.55569E-6	-45.463759
1.555735E-6	-45.433304
1.55578E-6	-45.422695
1.555825E-6	-45.418156
1.55587E-6	-45.433304
1.555915E-6	-45.466817
1.55596E-6	-45.627252
1.556005E-6	-45.982549
1.55605E-6	-46.281935
1.556095E-6	-46.401645
1.55614E-6	-46.432095
1.556185E-6	-46.439741
1.55623E-6	-46.428277
1.556275E-6	-46.416844
1.55632E-6	-46.3865
1.556365E-6	-46.210573
1.55641E-6	-45.845258
1.556455E-6	-45.547072
1.5565E-6	-45.437858
1.556545E-6	-45.407583
1.55659E-6	-45.406075
1.556635E-6	-45.421181
1.55668E-6	-45.419668
1.556725E-6	-45.446982
1.55677E-6	-45.625666
1.556815E-6	-45.980827
1.55686E-6	-46.293019
1.556905E-6	-46.394066
1.55695E-6	-46.428277
1.556995E-6	-46.428277
1.55704E-6	-46.416844
1.557085E-6	-46.401645
1.55713E-6	-46.378947
1.557175E-6	-46.192462
1.55722E-6	-45.823623
1.557265E-6	-45.540846
1.55731E-6	-45.431787
1.557355E-6	-45.406075
1.5574E-6	-45.413622
1.557445E-6	-45.434821
1.55749E-6	-45.434821
1.557535E-6	-45.468346
1.55758E-6	-45.646335
1.557625E-6	-46.013657
1.55767E-6	-46.315272
1.557715E-6	-46.439741
1.55776E-6	-46.451236
1.557805E-6	-46.451236
1.55785E-6	-46.439741
1.557895E-6	-46.445485
1.55794E-6	-46.420652
1.557985E-6	-46.219657
1.55803E-6	-45.858626
1.558075E-6	-45.562678
1.55812E-6	-45.466817
1.558165E-6	-45.456125
1.55821E-6	-45.457651
1.558255E-6	-45.466817
1.5583E-6	-45.479068
1.558345E-6	-45.511392
1.55839E-6	-45.691191
1.558435E-6	-46.07303
1.55848E-6	-46.371407
1.558525E-6	-46.483969
1.55857E-6	-46.495581
1.558615E-6	-46.493644
1.55866E-6	-46.483969
1.558705E-6	-46.501399
1.55875E-6	-46.476245
1.558795E-6	-46.287474
1.55884E-6	-45.91082
1.558885E-6	-45.636783
1.55893E-6	-45.54863
1.558975E-6	-45.537736
1.55902E-6	-45.550189
1.559065E-6	-45.565805
1.55911E-6	-45.562678
1.559155E-6	-45.594057
1.5592E-6	-45.787252
1.559245E-6	-46.152883
1.55929E-6	-46.458916
1.559335E-6	-46.556077
1.55938E-6	-46.565914
1.559425E-6	-46.561977
1.55947E-6	-46.577748
1.559515E-6	-46.583677
1.55956E-6	-46.563945
1.559605E-6	-46.362001
1.55965E-6	-46.018863
1.559695E-6	-45.744658
1.55974E-6	-45.655908
1.559785E-6	-45.673513
1.55983E-6	-45.678327
1.559875E-6	-45.675117
1.55992E-6	-45.67191
1.559965E-6	-45.717032
1.56001E-6	-45.915904
1.560055E-6	-46.278247
1.5601E-6	-46.567884
1.560145E-6	-46.647427
1.56019E-6	-46.659486
1.560235E-6	-46.671577
1.56028E-6	-46.683703
1.560325E-6	-46.693833
1.56037E-6	-46.673596
1.560415E-6	-46.50334
1.56046E-6	-46.151092
1.560505E-6	-45.900669
1.56055E-6	-45.816987
1.560595E-6	-45.823623
1.56064E-6	-45.825283
1.560685E-6	-45.826944
1.56073E-6	-45.825283
1.560775E-6	-45.873715
1.56082E-6	-46.053732
1.560865E-6	-46.38839
1.56091E-6	-46.667543
1.560955E-6	-46.753061
1.561E-6	-46.769543
1.561045E-6	-46.777807
1.56109E-6	-46.798537
1.561135E-6	-46.806857
1.56118E-6	-46.790233
1.561225E-6	-46.621416
1.56127E-6	-46.298572
1.561315E-6	-46.055483
1.56136E-6	-45.99462
1.561405E-6	-45.985995
1.56145E-6	-45.998075
1.561495E-6	-45.998075
1.56154E-6	-45.996347
1.561585E-6	-46.032777
1.56163E-6	-46.199698
1.561675E-6	-46.50334
1.56172E-6	-46.775739
1.561765E-6	-46.869769
1.56181E-6	-46.888822
1.561855E-6	-46.897316
1.5619E-6	-46.920763
1.561945E-6	-46.92504
1.56199E-6	-46.91009
1.562035E-6	-46.777807
1.56208E-6	-46.493644
1.562125E-6	-46.250684
1.56217E-6	-46.174427
1.562215E-6	-46.154674
1.56226E-6	-46.154674
1.562305E-6	-46.154674
1.56235E-6	-46.165437
1.562395E-6	-46.20332
1.56244E-6	-46.322715
1.562485E-6	-46.603498
1.56253E-6	-46.865546
1.562575E-6	-46.978856
1.56262E-6	-47.009287
1.562665E-6	-47.018021
1.56271E-6	-47.039933
1.562755E-6	-47.039933
1.5628E-6	-47.024583
1.562845E-6	-46.922901
1.56289E-6	-46.68168
1.562935E-6	-46.437829
1.56298E-6	-46.341378
1.563025E-6	-46.318991
1.56307E-6	-46.324577
1.563115E-6	-46.328305
1.56316E-6	-46.341378
1.563205E-6	-46.377061
1.56325E-6	-46.485902
1.563295E-6	-46.718243
1.56334E-6	-46.965879
1.563385E-6	-47.108572
1.56343E-6	-47.130946
