Wavelength (nm)	Power (dBm)
1.525E-6	-82.036338
1.525045E-6	-81.409819
1.52509E-6	-82.743333
1.525135E-6	-83.856302
1.52518E-6	-87.207895
1.525225E-6	-93.034689
1.52527E-6	-90.350336
1.525315E-6	-91.955198
1.52536E-6	-88.27689
1.525405E-6	-120
1.52545E-6	-87.428016
1.525495E-6	-86.422557
1.52554E-6	-83.282719
1.525585E-6	-81.502736
1.52563E-6	-81.000154
1.525675E-6	-80.432075
1.52572E-6	-79.909743
1.525765E-6	-80.233291
1.52581E-6	-80.35929
1.525855E-6	-80.617806
1.5259E-6	-81.278437
1.525945E-6	-83.797598
1.52599E-6	-87.527635
1.526035E-6	-93.673403
1.52608E-6	-103.279021
1.526125E-6	-120
1.52617E-6	-87.579558
1.526215E-6	-98.91435
1.52626E-6	-86.530605
1.526305E-6	-83.309622
1.52635E-6	-80.204061
1.526395E-6	-79.147094
1.52644E-6	-79.299621
1.526485E-6	-79.161392
1.52653E-6	-79.28118
1.526575E-6	-78.380334
1.52662E-6	-78.425432
1.526665E-6	-79.303319
1.52671E-6	-82.143143
1.526755E-6	-85.699249
1.5268E-6	-93.383766
1.526845E-6	-89.625735
1.52689E-6	-96.443569
1.526935E-6	-91.425469
1.52698E-6	-90.959339
1.527025E-6	-88.294449
1.52707E-6	-82.450404
1.527115E-6	-79.295927
1.52716E-6	-78.236193
1.527205E-6	-77.804155
1.52725E-6	-77.931741
1.527295E-6	-77.617029
1.52734E-6	-77.16925
1.527385E-6	-77.597004
1.52743E-6	-77.961515
1.527475E-6	-80.710923
1.52752E-6	-83.838397
1.527565E-6	-90.029633
1.52761E-6	-90.164639
1.527655E-6	-87.896815
1.5277E-6	-120
1.527745E-6	-94.161214
1.52779E-6	-120
1.527835E-6	-83.37431
1.52788E-6	-79.75925
1.527925E-6	-77.013652
1.52797E-6	-77.698066
1.528015E-6	-77.099654
1.52806E-6	-76.635403
1.528105E-6	-76.775739
1.52815E-6	-76.869769
1.528195E-6	-77.286231
1.52824E-6	-79.168559
1.528285E-6	-82.740067
1.52833E-6	-88.616973
1.528375E-6	-120
1.52842E-6	-120
1.528465E-6	-92.499547
1.52851E-6	-91.245914
1.528555E-6	-90.701215
1.5286E-6	-82.992098
1.528645E-6	-79.714287
1.52869E-6	-77.142177
1.528735E-6	-76.852903
1.52878E-6	-76.03452
1.528825E-6	-76.411138
1.52887E-6	-75.793842
1.528915E-6	-76.283781
1.52896E-6	-76.272721
1.529005E-6	-77.004927
1.52905E-6	-79.875846
1.529095E-6	-84.267802
1.52914E-6	-89.37418
1.529185E-6	-93.530085
1.52923E-6	-88.784402
1.529275E-6	-120
1.52932E-6	-120
1.529365E-6	-85.777385
1.52941E-6	-80.411973
1.529455E-6	-77.046529
1.5295E-6	-75.807053
1.529545E-6	-75.589336
1.52959E-6	-75.374523
1.529635E-6	-75.463759
1.52968E-6	-75.779028
1.529725E-6	-75.295895
1.52977E-6	-76.649435
1.529815E-6	-78.85389
1.52986E-6	-82.951634
1.529905E-6	-90.613302
1.52995E-6	-88.175853
1.529995E-6	-92.332898
1.53004E-6	-99.347939
1.530085E-6	-90.398623
1.53013E-6	-86.629403
1.530175E-6	-81.589535
1.53022E-6	-77.547342
1.530265E-6	-75.529971
1.53031E-6	-75.326879
1.530355E-6	-75.249102
1.5304E-6	-75.262212
1.530445E-6	-74.971634
1.53049E-6	-75.263671
1.530535E-6	-75.598784
1.53058E-6	-77.483618
1.530625E-6	-80.919978
1.53067E-6	-86.706021
1.530715E-6	-89.377942
1.53076E-6	-90.918368
1.530805E-6	-120
1.53085E-6	-120
1.530895E-6	-91.639292
1.53094E-6	-82.572749
1.530985E-6	-78.362425
1.53103E-6	-75.751184
1.531075E-6	-75.118725
1.53112E-6	-74.873156
1.531165E-6	-75.218666
1.53121E-6	-74.722412
1.531255E-6	-75.033471
1.5313E-6	-75.367044
1.531345E-6	-76.362001
1.53139E-6	-79.800533
1.531435E-6	-84.788619
1.53148E-6	-87.710866
1.531525E-6	-91.715335
1.53157E-6	-90.808696
1.531615E-6	-120
1.53166E-6	-100.291884
1.531705E-6	-87.189666
1.53175E-6	-80.89429
1.531795E-6	-76.17983
1.53184E-6	-75.483671
1.531885E-6	-75.16698
1.53193E-6	-75.001755
1.531975E-6	-75.058454
1.53202E-6	-75.040396
1.532065E-6	-75.212892
1.53211E-6	-75.536182
1.532155E-6	-77.442452
1.5322E-6	-80.965302
1.532245E-6	-87.088532
1.53229E-6	-94.135252
1.532335E-6	-92.61378
1.53238E-6	-99.783973
1.532425E-6	-91.275524
1.53247E-6	-99.961088
1.532515E-6	-82.795926
1.53256E-6	-77.013652
1.532605E-6	-75.720273
1.53265E-6	-75.215778
1.532695E-6	-75.137112
1.53274E-6	-75.068209
1.532785E-6	-75.400047
1.53283E-6	-75.175552
1.532875E-6	-75.570501
1.53292E-6	-77.347104
1.532965E-6	-79.558524
1.53301E-6	-85.204247
1.533055E-6	-88.236193
1.5331E-6	-93.43327
1.533145E-6	-120
1.53319E-6	-120
1.533235E-6	-90.618807
1.53328E-6	-84.7379
1.533325E-6	-79.37418
1.53337E-6	-77.121983
1.533415E-6	-75.710557
1.53346E-6	-75.603516
1.533505E-6	-75.858626
1.53355E-6	-75.826944
1.533595E-6	-75.825283
1.53364E-6	-75.924392
1.533685E-6	-76.90157
1.53373E-6	-79.132843
1.533775E-6	-83.859469
1.53382E-6	-88.620133
1.533865E-6	-96.808939
1.53391E-6	-90.279361
1.533955E-6	-93.19302
1.534E-6	-87.942545
1.534045E-6	-99.058784
1.53409E-6	-82.786016
1.534135E-6	-78.210231
1.53418E-6	-76.836102
1.534225E-6	-76.151092
1.53427E-6	-76.311555
1.534315E-6	-76.49752
1.53436E-6	-76.645421
1.534405E-6	-76.524748
1.53445E-6	-76.823545
1.534495E-6	-78.768019
1.53454E-6	-81.198154
1.534585E-6	-86.895191
1.53463E-6	-88.728952
1.534675E-6	-95.785606
1.53472E-6	-94.096041
1.534765E-6	-87.212464
1.53481E-6	-87.980569
1.534855E-6	-90.141246
1.5349E-6	-80.735032
1.534945E-6	-78.029953
1.53499E-6	-77.368375
1.535035E-6	-76.916491
1.53508E-6	-76.948637
1.535125E-6	-77.128704
1.53517E-6	-76.90157
1.535215E-6	-77.368375
1.53526E-6	-77.677665
1.535305E-6	-80.908721
1.53535E-6	-84.895891
1.535395E-6	-91.2056
1.53544E-6	-120
1.535485E-6	-93.239469
1.53553E-6	-120
1.535575E-6	-88.359447
1.53562E-6	-94.899915
1.535665E-6	-83.518352
1.53571E-6	-79.93534
1.535755E-6	-77.90217
1.5358E-6	-77.90485
1.535845E-6	-77.806775
1.53589E-6	-78.130437
1.535935E-6	-77.614521
1.53598E-6	-77.644716
1.536025E-6	-78.326827
1.53607E-6	-80.072256
1.536115E-6	-83.981572
1.53616E-6	-88.563608
1.536205E-6	-120
1.53625E-6	-97.423214
1.536295E-6	-120
1.53634E-6	-120
1.536385E-6	-95.145625
1.53643E-6	-87.478754
1.536475E-6	-81.861522
1.53652E-6	-78.837244
1.536565E-6	-78.262312
1.53661E-6	-77.886124
1.536655E-6	-78.178708
1.5367E-6	-78.667805
1.536745E-6	-78.303256
1.53679E-6	-78.422411
1.536835E-6	-79.519468
1.53688E-6	-81.763954
1.536925E-6	-84.589202
1.53697E-6	-88.823973
1.537015E-6	-93.695721
1.53706E-6	-89.262816
1.537105E-6	-94.590452
1.53715E-6	-91.831624
1.537195E-6	-93.394191
1.53724E-6	-83.705904
1.537285E-6	-83.13185
1.53733E-6	-78.996295
1.537375E-6	-79.013563
1.53742E-6	-78.480176
1.537465E-6	-78.227522
1.53751E-6	-78.850556
1.537555E-6	-78.797552
1.5376E-6	-78.616973
1.537645E-6	-80.28585
1.53769E-6	-84.424928
1.537735E-6	-84.260846
1.53778E-6	-120
1.537825E-6	-88.398317
1.53787E-6	-87.872798
1.537915E-6	-120
1.53796E-6	-120
1.538005E-6	-91.865525
1.53805E-6	-83.072412
1.538095E-6	-79.884296
1.53814E-6	-78.817353
1.538185E-6	-78.823973
1.53823E-6	-78.784402
1.538275E-6	-78.645493
1.53832E-6	-79.010104
1.538365E-6	-78.938091
1.53841E-6	-79.888526
1.538455E-6	-81.025929
1.5385E-6	-85.310622
1.538545E-6	-120
1.53859E-6	-120
1.538635E-6	-95.503673
1.53868E-6	-90.483711
1.538725E-6	-96.172627
1.53877E-6	-90.014355
1.538815E-6	-84.805658
1.53886E-6	-81.479472
1.538905E-6	-79.259153
1.53895E-6	-78.535619
1.538995E-6	-78.790972
1.53904E-6	-78.784402
1.539085E-6	-78.693447
1.53913E-6	-78.706324
1.539175E-6	-78.996295
1.53922E-6	-81.189008
1.539265E-6	-83.718155
1.53931E-6	-89.473061
1.539355E-6	-91.834273
1.5394E-6	-88.520147
1.539445E-6	-95.726762
1.53949E-6	-87.632109
1.539535E-6	-88.745187
1.53958E-6	-88.077114
1.539625E-6	-81.915864
1.53967E-6	-79.897
1.539715E-6	-78.572978
1.53976E-6	-79.875846
1.539805E-6	-78.437538
1.53985E-6	-77.728849
1.539895E-6	-77.988761
1.53994E-6	-78.677403
1.539985E-6	-78.751699
1.54003E-6	-81.940236
1.540075E-6	-84.87983
1.54012E-6	-97.731424
1.540165E-6	-92.626483
1.54021E-6	-98.377344
1.540255E-6	-99.500071
1.5403E-6	-93.09361
1.540345E-6	-92.338847
1.54039E-6	-85.909126
1.540435E-6	-80.180456
1.54048E-6	-78.961963
1.540525E-6	-78.790972
1.54057E-6	-78.06041
1.540615E-6	-78.265224
1.54066E-6	-78.291518
1.540705E-6	-78.389316
1.54075E-6	-78.613816
1.540795E-6	-79.943906
1.54084E-6	-82.201871
1.540885E-6	-89.918258
1.54093E-6	-94.30392
1.540975E-6	-93.213906
1.54102E-6	-94.779472
1.541065E-6	-91.537866
1.54111E-6	-88.645493
1.541155E-6	-93.023348
1.5412E-6	-82.50805
1.541245E-6	-79.132843
1.54129E-6	-78.210231
1.541335E-6	-78.107905
1.54138E-6	-78.079904
1.541425E-6	-77.953375
1.54147E-6	-77.639669
1.541515E-6	-77.577071
1.54156E-6	-78.425432
1.541605E-6	-80.401004
1.54165E-6	-84.040631
1.541695E-6	-85.936302
1.54174E-6	-90.444566
1.541785E-6	-91.695396
1.54183E-6	-120
1.541875E-6	-87.647241
1.54192E-6	-87.449688
1.541965E-6	-85.938006
1.54201E-6	-81.79142
1.542055E-6	-78.880657
1.5421E-6	-77.848914
1.542145E-6	-77.851562
1.54219E-6	-77.772835
1.542235E-6	-77.602002
1.54228E-6	-77.392133
1.542325E-6	-77.880789
1.54237E-6	-79.208188
1.542415E-6	-81.024829
1.54246E-6	-84.828041
1.542505E-6	-91.753536
1.54255E-6	-92.012113
1.542595E-6	-120
1.54264E-6	-95.338741
1.542685E-6	-96.138579
1.54273E-6	-90.151128
1.542775E-6	-83.478504
1.54282E-6	-79.609827
1.542865E-6	-78.027194
1.54291E-6	-77.662426
1.542955E-6	-77.87546
1.543E-6	-77.9129
1.543045E-6	-77.473897
1.54309E-6	-78.127614
1.543135E-6	-77.923656
1.54318E-6	-79.19013
1.543225E-6	-81.921269
1.54327E-6	-87.059749
1.543315E-6	-120
1.54336E-6	-120
1.543405E-6	-120
1.54345E-6	-94.35926
1.543495E-6	-120
1.54354E-6	-97.632109
1.543585E-6	-82.109131
1.54363E-6	-78.317973
1.543675E-6	-77.567139
1.54372E-6	-77.437635
1.543765E-6	-77.785858
1.54381E-6	-77.599502
1.543855E-6	-77.061956
1.5439E-6	-77.657359
1.543945E-6	-78.572978
1.54399E-6	-79.792245
1.544035E-6	-85.334289
1.54408E-6	-92.687337
1.544125E-6	-89.097419
1.54417E-6	-91.553365
1.544215E-6	-120
1.54426E-6	-120
1.544305E-6	-90.849169
1.54435E-6	-83.443814
1.544395E-6	-80.638886
1.54444E-6	-77.851562
1.544485E-6	-77.191941
1.54453E-6	-77.164726
1.544575E-6	-77.617029
1.54462E-6	-77.258422
1.544665E-6	-77.517814
1.54471E-6	-77.498241
1.544755E-6	-79.366666
1.5448E-6	-81.05961
1.544845E-6	-86.507225
1.54489E-6	-91.560202
1.544935E-6	-95.294425
1.54498E-6	-88.680607
1.545025E-6	-87.20105
1.54507E-6	-79.359166
1.545115E-6	-65.356595
1.54516E-6	-51.618438
1.545205E-6	-45.041782
1.54525E-6	-42.814153
1.545295E-6	-42.287066
1.54534E-6	-42.234441
1.545385E-6	-42.222108
1.54543E-6	-42.211255
1.545475E-6	-42.590849
1.54552E-6	-44.566771
1.545565E-6	-49.115095
1.54561E-6	-58.758219
1.545655E-6	-67.532553
1.5457E-6	-74.718549
1.545745E-6	-80.166444
1.54579E-6	-84.89321
1.545835E-6	-90.414361
1.54588E-6	-87.9129
1.545925E-6	-89.35542
1.54597E-6	-81.611509
1.546015E-6	-78.632794
1.54606E-6	-77.009287
1.546105E-6	-77.253804
1.54615E-6	-76.759234
1.546195E-6	-77.56962
1.54624E-6	-76.998395
1.546285E-6	-77.251497
1.54633E-6	-77.780644
1.546375E-6	-79.597934
1.54642E-6	-83.006827
1.546465E-6	-86.842395
1.54651E-6	-94.93901
1.546555E-6	-89.023957
1.5466E-6	-94.616777
1.546645E-6	-88.259402
1.54669E-6	-93.989183
1.546735E-6	-85.534628
1.54678E-6	-80.655521
1.546825E-6	-77.687854
1.54687E-6	-77.552282
1.546915E-6	-77.283907
1.54696E-6	-77.121983
1.547005E-6	-76.800616
1.54705E-6	-77.081873
1.547095E-6	-77.251497
1.54714E-6	-78.722475
1.547185E-6	-80.617806
1.54723E-6	-84.784697
1.547275E-6	-94.241197
1.54732E-6	-90.610802
1.547365E-6	-90.118872
1.54741E-6	-95.660702
1.547455E-6	-88.138916
1.5475E-6	-91.320613
1.547545E-6	-84.031831
1.54759E-6	-79.35542
1.547635E-6	-77.46662
1.54768E-6	-77.146678
1.547725E-6	-76.8867
1.54777E-6	-76.978856
1.547815E-6	-76.755118
1.54786E-6	-77.444863
1.547905E-6	-77.144427
1.54795E-6	-78.187282
1.547995E-6	-80.50854
1.54804E-6	-84.999008
1.548085E-6	-96.447401
1.54813E-6	-87.915586
1.548175E-6	-112.700257
1.54822E-6	-90.653501
1.548265E-6	-86.691805
1.54831E-6	-120
1.548355E-6	-82.382225
1.5484E-6	-79.229957
1.548445E-6	-77.47147
1.54849E-6	-77.368375
1.548535E-6	-76.981023
1.54858E-6	-76.942188
1.548625E-6	-77.488487
1.54867E-6	-76.952941
1.548715E-6	-78.250684
1.54876E-6	-79.527251
1.548805E-6	-81.552744
1.54885E-6	-84.528409
1.548895E-6	-88.410347
1.54894E-6	-99.558524
1.548985E-6	-97.614521
1.54903E-6	-88.948306
1.549075E-6	-120
1.54912E-6	-87.476325
1.549165E-6	-81.153179
1.54921E-6	-78.356471
1.549255E-6	-77.404061
1.5493E-6	-76.79646
1.549345E-6	-76.899443
1.54939E-6	-76.882461
1.549435E-6	-77.644716
1.54948E-6	-77.356545
1.549525E-6	-78.082696
1.54957E-6	-79.179331
1.549615E-6	-83.132744
1.54966E-6	-87.358908
1.549705E-6	-92.522775
1.54975E-6	-92.555505
1.549795E-6	-85.433304
1.54984E-6	-82.940508
1.549885E-6	-74.195312
1.54993E-6	-57.302536
1.549975E-6	-47.840982
1.55002E-6	-43.418932
1.550065E-6	-42.232262
1.55011E-6	-42.021095
1.550155E-6	-41.991455
1.5502E-6	-41.987335
1.550245E-6	-42.028017
1.55029E-6	-42.763802
1.550335E-6	-45.646335
1.55038E-6	-51.837587
1.550425E-6	-60.748943
1.55047E-6	-69.850597
1.550515E-6	-77.375489
1.55056E-6	-81.747687
1.550605E-6	-85.468346
1.55065E-6	-90.674248
1.550695E-6	-86.955095
1.55074E-6	-83.847867
1.550785E-6	-79.775716
1.55083E-6	-77.295541
1.550875E-6	-77.011469
1.55092E-6	-77.411234
1.550965E-6	-77.119745
1.55101E-6	-77.015836
1.551055E-6	-76.667543
1.5511E-6	-76.968039
1.551145E-6	-77.62205
1.55119E-6	-80.170959
1.551235E-6	-83.752024
1.55128E-6	-89.090369
1.551325E-6	-120
1.55137E-6	-120
1.551415E-6	-93.665315
1.55146E-6	-89.75925
1.551505E-6	-89.633711
1.55155E-6	-84.48672
1.551595E-6	-78.92112
1.55164E-6	-77.617029
1.551685E-6	-75.178413
1.55173E-6	-76.880343
1.551775E-6	-76.811023
1.55182E-6	-77.221617
1.551865E-6	-76.603498
1.55191E-6	-77.342391
1.551955E-6	-78.572978
1.552E-6	-80.997421
1.552045E-6	-83.567448
1.55209E-6	-89.554602
1.552135E-6	-91.136221
1.55218E-6	-98.680607
1.552225E-6	-89.562449
1.55227E-6	-89.488475
1.552315E-6	-88.38632
1.55236E-6	-82.321024
1.552405E-6	-79.240882
1.55245E-6	-77.368375
1.552495E-6	-76.603498
1.55254E-6	-76.470461
1.552585E-6	-76.850799
1.55263E-6	-76.942188
1.552675E-6	-76.903698
1.55272E-6	-76.591595
1.552765E-6	-79.318141
1.55281E-6	-81.137349
1.552855E-6	-86.922901
1.5529E-6	-88.099486
1.552945E-6	-88.78112
1.55299E-6	-91.105862
1.553035E-6	-89.013563
1.55308E-6	-120
1.553125E-6	-90.37536
1.55317E-6	-81.939558
1.553215E-6	-78.365404
1.55326E-6	-76.716204
1.553305E-6	-76.424463
1.55335E-6	-76.601512
1.553395E-6	-76.300424
1.55344E-6	-76.583677
1.553485E-6	-76.629403
1.55353E-6	-77.13319
1.553575E-6	-79.226321
1.55362E-6	-81.688984
1.553665E-6	-88.732194
1.55371E-6	-90.794071
1.553755E-6	-120
1.5538E-6	-88.658229
1.553845E-6	-99.200955
1.55389E-6	-104.739193
1.553935E-6	-85.275361
1.55398E-6	-81.057393
1.554025E-6	-78.374356
1.55407E-6	-76.888822
1.554115E-6	-76.815193
1.55416E-6	-76.876111
1.554205E-6	-76.861328
1.55425E-6	-76.407338
1.554295E-6	-76.546263
1.55434E-6	-77.10411
1.554385E-6	-79.698052
1.55443E-6	-82.107014
1.554475E-6	-89.266483
1.55452E-6	-97.176045
1.554565E-6	-89.442395
1.55461E-6	-120
1.554655E-6	-95.870357
1.5547E-6	-90.338583
1.554745E-6	-86.36388
1.55479E-6	-80.695604
1.554835E-6	-78.153086
1.55488E-6	-76.827727
1.554925E-6	-76.136794
1.55497E-6	-76.044989
1.555015E-6	-76.445485
1.55506E-6	-76.287474
1.555105E-6	-76.593576
1.55515E-6	-76.922901
1.555195E-6	-79.3968
1.55524E-6	-82.516569
1.555285E-6	-87.086311
1.55533E-6	-97.002748
1.555375E-6	-101.015491
1.55542E-6	-120
1.555465E-6	-120
1.55551E-6	-87.242281
1.555555E-6	-84.576726
1.5556E-6	-80.426322
1.555645E-6	-77.478754
1.55569E-6	-76.93575
1.555735E-6	-76.35449
1.55578E-6	-76.401645
1.555825E-6	-76.217839
1.55587E-6	-76.339508
1.555915E-6	-76.480105
1.55596E-6	-76.998395
1.556005E-6	-79.097419
1.55605E-6	-82.941363
1.556095E-6	-88.661419
1.55614E-6	-89.943906
1.556185E-6	-89.825493
1.55623E-6	-93.719177
1.556275E-6	-97.337683
1.55632E-6	-97.629592
1.556365E-6	-86.842395
1.55641E-6	-80.6778
1.556455E-6	-77.31422
1.5565E-6	-77.031155
1.556545E-6	-76.532559
1.55659E-6	-76.451236
1.556635E-6	-76.254349
1.55668E-6	-76.49752
1.556725E-6	-76.569855
1.55677E-6	-76.823545
1.556815E-6	-79.069287
1.55686E-6	-81.89902
1.556905E-6	-85.072396
1.55695E-6	-90.876185
1.556995E-6	-120
1.55704E-6	-93.888079
1.557085E-6	-88.065971
1.55713E-6	-94.564286
1.557175E-6	-83.884891
1.55722E-6	-79.838026
1.557265E-6	-77.121983
1.55731E-6	-76.483969
1.557355E-6	-76.714166
1.5574E-6	-75.984272
1.557445E-6	-76.356366
1.55749E-6	-76.26904
1.557535E-6	-76.49752
1.55758E-6	-77.4958
1.557625E-6	-79.393022
1.55767E-6	-83.307761
1.557715E-6	-85.851937
1.55776E-6	-90.006084
1.557805E-6	-97.242281
1.55785E-6	-94.155557
1.557895E-6	-89.168559
1.55794E-6	-100.86557
1.557985E-6	-84.466025
1.55803E-6	-80.150678
1.558075E-6	-77.642191
1.55812E-6	-76.434006
1.558165E-6	-76.219657
1.55821E-6	-76.27088
1.558255E-6	-76.041496
1.5583E-6	-76.577748
1.558345E-6	-76.145725
1.55839E-6	-77.304871
1.558435E-6	-79.211808
1.55848E-6	-83.787198
1.558525E-6	-92.901367
1.55857E-6	-94.521023
1.558615E-6	-89.991323
1.55866E-6	-92.692985
1.558705E-6	-120
1.55875E-6	-87.124222
1.558795E-6	-85.260753
1.55884E-6	-79.796387
1.558885E-6	-77.242281
1.55893E-6	-76.101254
1.558975E-6	-76.714166
1.55902E-6	-76.317131
1.559065E-6	-76.587634
1.55911E-6	-76.524748
1.559155E-6	-76.607474
1.5592E-6	-77.907532
1.559245E-6	-79.179331
1.55929E-6	-83.575355
1.559335E-6	-87.130946
1.55938E-6	-98.380334
1.559425E-6	-90.5532
1.55947E-6	-100.425364
1.559515E-6	-89.168559
1.55956E-6	-89.248181
1.559605E-6	-84.867824
1.55965E-6	-80.349865
1.559695E-6	-77.767637
1.55974E-6	-76.834007
1.559785E-6	-77.151183
1.55983E-6	-76.865546
1.559875E-6	-77.21475
1.55992E-6	-76.611453
1.559965E-6	-76.981023
1.56001E-6	-78.425432
1.560055E-6	-79.738755
1.5601E-6	-82.958495
1.560145E-6	-87.833064
1.56019E-6	-89.065783
1.560235E-6	-90.092617
1.56028E-6	-120
1.560325E-6	-91.746388
1.56037E-6	-96.903698
1.560415E-6	-85.313573
1.56046E-6	-81.186724
1.560505E-6	-78.093882
1.56055E-6	-76.914356
1.560595E-6	-77.191941
1.56064E-6	-77.198771
1.560685E-6	-76.882461
1.56073E-6	-76.863437
1.560775E-6	-77.055338
1.56082E-6	-77.872798
1.560865E-6	-79.473061
1.56091E-6	-83.968556
1.560955E-6	-92.108425
1.561E-6	-90.44649
1.561045E-6	-97.340036
1.56109E-6	-88.671002
1.561135E-6	-120
1.56118E-6	-89.473061
1.561225E-6	-87.099654
1.56127E-6	-81.222257
1.561315E-6	-78.814046
1.56136E-6	-77.430418
1.561405E-6	-77.8199
1.56145E-6	-77.980569
1.561495E-6	-77.532553
1.56154E-6	-77.228494
1.561585E-6	-77.772835
1.56163E-6	-78.437538
1.561675E-6	-80.176383
1.56172E-6	-83.791355
1.561765E-6	-90.123784
1.56181E-6	-88.535619
1.561855E-6	-91.852864
1.5619E-6	-89.179331
1.561945E-6	-90.485168
1.56199E-6	-91.852864
1.562035E-6	-84.791236
1.56208E-6	-83.147062
1.562125E-6	-79.161392
1.56217E-6	-78.253588
1.562215E-6	-77.767637
1.56226E-6	-77.92635
1.562305E-6	-77.920965
1.56235E-6	-77.838341
1.562395E-6	-77.899492
1.56244E-6	-78.754958
1.562485E-6	-80.190881
1.56253E-6	-84.497716
1.562575E-6	-86.635403
1.56262E-6	-120
1.562665E-6	-94.066032
1.56271E-6	-120
1.562755E-6	-120
1.5628E-6	-102.357491
1.562845E-6	-120
1.56289E-6	-83.23215
1.562935E-6	-79.657727
1.56298E-6	-79.037854
1.563025E-6	-78.341624
1.56307E-6	-78.27689
1.563115E-6	-78.224635
1.56316E-6	-78.965384
1.563205E-6	-78.498578
1.56325E-6	-78.642315
1.563295E-6	-79.93534
1.56334E-6	-83.540867
1.563385E-6	-88.897471
1.56343E-6	-95.497509
1.563475E-6	-90.08331
1.56352E-6	-88.557372
1.563565E-6	-93.670368
1.56361E-6	-92.637629
1.563655E-6	-87.685304
1.5637E-6	-84.079343
1.563745E-6	-80.614803
1.56379E-6	-79.321855
1.563835E-6	-79.058784
1.56388E-6	-78.477117
1.563925E-6	-79.04482
1.56397E-6	-79.154237
