Wavelength (nm)	Power (dBm)
1.525E-6	-58.419392
1.525045E-6	-58.44057
1.52509E-6	-59.097419
1.525135E-6	-61.244757
1.52518E-6	-65.061239
1.525225E-6	-68.620133
1.52527E-6	-69.685915
1.525315E-6	-69.714287
1.52536E-6	-69.854795
1.525405E-6	-69.714287
1.52545E-6	-67.321246
1.525495E-6	-62.401056
1.52554E-6	-59.08333
1.525585E-6	-57.599502
1.52563E-6	-57.196493
1.525675E-6	-57.020208
1.52572E-6	-56.846595
1.525765E-6	-56.679657
1.52581E-6	-56.601512
1.525855E-6	-57.088532
1.5259E-6	-59.017025
1.525945E-6	-62.626483
1.52599E-6	-67.401673
1.526035E-6	-69.434763
1.52608E-6	-69.726504
1.526125E-6	-69.800533
1.52617E-6	-69.75104
1.526215E-6	-67.723704
1.52626E-6	-62.19035
1.526305E-6	-58.218867
1.52635E-6	-56.337639
1.526395E-6	-55.807053
1.52644E-6	-55.617742
1.526485E-6	-55.52842
1.52653E-6	-55.443939
1.526575E-6	-55.401554
1.52662E-6	-55.679933
1.526665E-6	-57.144427
1.52671E-6	-60.365427
1.526755E-6	-65.262212
1.5268E-6	-68.797552
1.526845E-6	-69.673812
1.52689E-6	-69.718356
1.526935E-6	-69.613798
1.52698E-6	-68.218867
1.527025E-6	-62.726214
1.52707E-6	-57.698066
1.527115E-6	-55.374523
1.52716E-6	-54.581712
1.527205E-6	-54.411715
1.52725E-6	-54.301581
1.527295E-6	-54.241197
1.52734E-6	-54.201021
1.527385E-6	-54.375882
1.52743E-6	-55.440898
1.527475E-6	-58.401322
1.52752E-6	-62.990368
1.527565E-6	-67.822529
1.52761E-6	-69.438577
1.527655E-6	-69.461536
1.5277E-6	-69.473061
1.527745E-6	-68.784402
1.52779E-6	-63.8122
1.527835E-6	-57.721133
1.52788E-6	-54.800408
1.527925E-6	-53.706924
1.52797E-6	-53.431355
1.528015E-6	-53.35452
1.52806E-6	-53.294758
1.528105E-6	-53.26058
1.52815E-6	-53.297541
1.528195E-6	-54.037329
1.52824E-6	-56.278247
1.528285E-6	-60.500736
1.52833E-6	-65.991168
1.528375E-6	-68.712777
1.52842E-6	-68.774565
1.528465E-6	-67.654827
1.52851E-6	-63.859469
1.528555E-6	-54.287571
1.5286E-6	-38.541823
1.528645E-6	-32.16025
1.52869E-6	-29.197344
1.528735E-6	-28.250684
1.52878E-6	-27.999707
1.528825E-6	-27.878124
1.52887E-6	-27.770236
1.528915E-6	-27.94525
1.52896E-6	-29.538952
1.529005E-6	-33.661277
1.52905E-6	-42.160964
1.529095E-6	-52.884458
1.52914E-6	-61.267375
1.529185E-6	-65.287083
1.52923E-6	-67.033348
1.529275E-6	-65.154155
1.52932E-6	-58.992849
1.529365E-6	-42.285595
1.52941E-6	-33.711004
1.529455E-6	-29.969705
1.5295E-6	-28.44664
1.529545E-6	-28.08549
1.52959E-6	-27.972393
1.529635E-6	-27.89414
1.52968E-6	-27.90485
1.529725E-6	-28.880657
1.52977E-6	-31.877553
1.529815E-6	-39.076303
1.52986E-6	-49.649707
1.529905E-6	-59.270153
1.52995E-6	-64.025242
1.529995E-6	-66.691805
1.53004E-6	-66.011923
1.530085E-6	-61.519341
1.53013E-6	-48.794261
1.530175E-6	-35.813673
1.53022E-6	-30.727837
1.530265E-6	-28.639139
1.53031E-6	-28.035475
1.530355E-6	-27.915586
1.5304E-6	-27.809397
1.530445E-6	-27.788467
1.53049E-6	-28.153086
1.530535E-6	-30.289562
1.53058E-6	-35.564241
1.530625E-6	-45.047333
1.53067E-6	-56.225116
1.530715E-6	-61.88425
1.53076E-6	-66.001533
1.530805E-6	-66.530605
1.53085E-6	-63.384713
1.530895E-6	-53.910463
1.53094E-6	-38.082696
1.530985E-6	-31.892971
1.53103E-6	-29.023957
1.531075E-6	-28.144578
1.53112E-6	-27.988761
1.531165E-6	-27.9129
1.53121E-6	-27.867479
1.531255E-6	-28.046539
1.5313E-6	-29.503944
1.531345E-6	-33.388501
1.53139E-6	-41.350145
1.531435E-6	-52.457281
1.53148E-6	-60.951763
1.531525E-6	-65.026556
1.53157E-6	-66.79646
1.531615E-6	-65.027938
1.53166E-6	-59.093893
1.531705E-6	-42.363474
1.53175E-6	-33.610118
1.531795E-6	-29.661743
1.53184E-6	-28.201611
1.531885E-6	-27.87546
1.53193E-6	-27.8199
1.531975E-6	-27.817271
1.53202E-6	-27.859513
1.532065E-6	-28.572978
1.53211E-6	-31.222832
1.532155E-6	-37.629592
1.5322E-6	-48.074325
1.532245E-6	-58.04931
1.53229E-6	-63.171332
1.532335E-6	-66.362001
1.53238E-6	-66.027554
1.532425E-6	-62.032176
1.53247E-6	-50.204061
1.532515E-6	-36.111886
1.53256E-6	-30.678815
1.532605E-6	-28.443604
1.53265E-6	-27.907532
1.532695E-6	-27.817271
1.53274E-6	-27.8199
1.532785E-6	-27.878124
1.53283E-6	-28.294449
1.532875E-6	-30.214999
1.53292E-6	-34.966179
1.532965E-6	-43.976144
1.53301E-6	-55.319482
1.533055E-6	-62.253371
1.5331E-6	-65.787252
1.533145E-6	-66.802695
1.53319E-6	-64.409317
1.533235E-6	-56.968039
1.53328E-6	-40.523703
1.533325E-6	-32.810004
1.53337E-6	-29.292235
1.533415E-6	-28.136088
1.53346E-6	-27.953375
1.533505E-6	-27.939841
1.53355E-6	-28.005191
1.533595E-6	-28.227522
1.53364E-6	-29.262816
1.533685E-6	-32.47721
1.53373E-6	-39.186527
1.533775E-6	-50.50854
1.53382E-6	-59.645703
1.533865E-6	-64.377071
1.53391E-6	-66.798537
1.533955E-6	-65.919297
1.534E-6	-61.168498
1.534045E-6	-48.560489
1.53409E-6	-35.347659
1.534135E-6	-30.294207
1.53418E-6	-28.353498
1.534225E-6	-27.953375
1.53427E-6	-27.953375
1.534315E-6	-28.046539
1.53436E-6	-28.158766
1.534405E-6	-28.706324
1.53445E-6	-30.822845
1.534495E-6	-35.958508
1.53454E-6	-45.322439
1.534585E-6	-56.430186
1.53463E-6	-62.232262
1.534675E-6	-66.117211
1.53472E-6	-66.792308
1.534765E-6	-63.788237
1.53481E-6	-55.398542
1.534855E-6	-39.069287
1.5349E-6	-31.963381
1.534945E-6	-28.823973
1.53499E-6	-27.870138
1.535035E-6	-27.79369
1.53508E-6	-27.886124
1.535125E-6	-27.996968
1.53517E-6	-28.259402
1.535215E-6	-29.621752
1.53526E-6	-33.249553
1.535305E-6	-40.842837
1.53535E-6	-52.020404
1.535395E-6	-60.662091
1.53544E-6	-64.994891
1.535485E-6	-66.972363
1.53553E-6	-65.665502
1.535575E-6	-60.684913
1.53562E-6	-47.366007
1.535665E-6	-34.953932
1.53571E-6	-30.040578
1.535755E-6	-28.116341
1.5358E-6	-27.775437
1.535845E-6	-27.791078
1.53589E-6	-27.886124
1.535935E-6	-28.024438
1.53598E-6	-28.664611
1.536025E-6	-30.917831
1.53607E-6	-36.653452
1.536115E-6	-46.577748
1.53616E-6	-57.300203
1.536205E-6	-62.813323
1.53625E-6	-66.390281
1.536295E-6	-66.907958
1.53634E-6	-63.637127
1.536385E-6	-55.059846
1.53643E-6	-38.738686
1.536475E-6	-31.955198
1.53652E-6	-28.840568
1.536565E-6	-27.93444
1.53661E-6	-27.846268
1.536655E-6	-27.92635
1.5367E-6	-27.994231
1.536745E-6	-28.193008
1.53679E-6	-29.574245
1.536835E-6	-33.215727
1.53688E-6	-40.800855
1.536925E-6	-52.164537
1.53697E-6	-60.805558
1.537015E-6	-65.001755
1.53706E-6	-67.099654
1.537105E-6	-65.836924
1.53715E-6	-60.934495
1.537195E-6	-47.71343
1.53724E-6	-35.029321
1.537285E-6	-30.212262
1.53733E-6	-28.320922
1.537375E-6	-27.899492
1.53742E-6	-27.888795
1.537465E-6	-27.918275
1.53751E-6	-27.983298
1.537555E-6	-28.50473
1.5376E-6	-30.778976
1.537645E-6	-36.480105
1.53769E-6	-46.33577
1.537735E-6	-56.92718
1.53778E-6	-62.535994
1.537825E-6	-66.298572
1.53787E-6	-66.90157
1.537915E-6	-64.119525
1.53796E-6	-56.309698
1.538005E-6	-39.800533
1.53805E-6	-32.338847
1.538095E-6	-29.003194
1.53814E-6	-27.972393
1.538185E-6	-27.806775
1.53823E-6	-27.765041
1.538275E-6	-27.75208
1.53832E-6	-27.888795
1.538365E-6	-29.118639
1.53841E-6	-32.584545
1.538455E-6	-39.901244
1.5385E-6	-51.170203
1.538545E-6	-60.107282
1.53859E-6	-64.621809
1.538635E-6	-66.981023
1.53868E-6	-66.108339
1.538725E-6	-61.78552
1.53877E-6	-49.175737
1.538815E-6	-35.90405
1.53886E-6	-30.664621
1.538905E-6	-28.566729
1.53895E-6	-28.038238
1.538995E-6	-27.975117
1.53904E-6	-27.910215
1.539085E-6	-27.915586
1.53913E-6	-28.315025
1.539175E-6	-30.369208
1.53922E-6	-35.556429
1.539265E-6	-44.989407
1.53931E-6	-56.210573
1.539355E-6	-62.006595
1.5394E-6	-66.001533
1.539445E-6	-66.8867
1.53949E-6	-64.474535
1.539535E-6	-57.230789
1.53958E-6	-40.6778
1.539625E-6	-32.914941
1.53967E-6	-29.347939
1.539715E-6	-28.153086
1.53976E-6	-27.929045
1.539805E-6	-27.872798
1.53985E-6	-27.798919
1.539895E-6	-27.862167
1.53994E-6	-28.840568
1.539985E-6	-32.017638
1.54003E-6	-39.653715
1.540075E-6	-50.112182
1.54012E-6	-59.344203
1.540165E-6	-64.041732
1.54021E-6	-66.73869
1.540255E-6	-66.377061
1.5403E-6	-62.413152
1.540345E-6	-51.103062
1.54039E-6	-36.38839
1.540435E-6	-31.049091
1.54048E-6	-28.629625
1.540525E-6	-27.975117
1.54057E-6	-27.843624
1.540615E-6	-27.762445
1.54066E-6	-27.75208
1.540705E-6	-28.065971
1.54075E-6	-29.75925
1.540795E-6	-34.356891
1.54084E-6	-43.1078
1.540885E-6	-54.854522
1.54093E-6	-61.734069
1.540975E-6	-65.592483
1.54102E-6	-67.068585
1.541065E-6	-65.249102
1.54111E-6	-59.54677
1.541155E-6	-42.887835
1.5412E-6	-34.006629
1.541245E-6	-29.905491
1.54129E-6	-28.344589
1.541335E-6	-27.953375
1.54138E-6	-27.880789
1.541425E-6	-27.825161
1.54147E-6	-27.867479
1.541515E-6	-28.613816
1.54156E-6	-31.266794
1.541605E-6	-37.762445
1.54165E-6	-48.068754
1.541695E-6	-57.964232
1.54174E-6	-63.257821
1.541785E-6	-66.480105
1.54183E-6	-66.599527
1.541875E-6	-63.253225
1.54192E-6	-53.993538
1.541965E-6	-37.939841
1.54201E-6	-31.711468
1.542055E-6	-28.837244
1.5421E-6	-27.996968
1.542145E-6	-27.817271
1.54219E-6	-27.785858
1.542235E-6	-27.731424
1.54228E-6	-27.87546
1.542325E-6	-29.211808
1.54237E-6	-32.862575
1.542415E-6	-40.714505
1.54246E-6	-51.743792
1.542505E-6	-60.410541
1.54255E-6	-64.78339
1.542595E-6	-66.867657
1.54264E-6	-65.9176
1.542685E-6	-61.277854
1.54273E-6	-48.121974
1.542775E-6	-35.561115
1.54282E-6	-30.526153
1.542865E-6	-28.541823
1.54291E-6	-28.06319
1.542955E-6	-27.966951
1.543E-6	-27.923656
1.543045E-6	-27.888795
1.54309E-6	-28.241984
1.543135E-6	-30.16509
1.54318E-6	-34.990778
1.543225E-6	-44.412914
1.54327E-6	-55.545515
1.543315E-6	-62.35525
1.54336E-6	-65.777385
1.543405E-6	-66.871882
1.54345E-6	-64.616777
1.543495E-6	-58.207355
1.54354E-6	-41.236089
1.543585E-6	-33.267947
1.54363E-6	-29.54677
1.543675E-6	-28.227522
1.54372E-6	-27.961515
1.543765E-6	-27.90217
1.54381E-6	-27.85421
1.543855E-6	-27.910215
1.5439E-6	-28.696662
1.543945E-6	-31.450263
1.54399E-6	-38.141746
1.544035E-6	-48.486301
1.54408E-6	-58.23041
1.544125E-6	-63.400838
1.54417E-6	-66.482037
1.544215E-6	-66.544302
1.54426E-6	-63.042557
1.544305E-6	-53.39514
1.54435E-6	-37.619539
1.544395E-6	-31.53601
1.54444E-6	-28.867253
1.544485E-6	-28.091083
1.54453E-6	-27.961515
1.544575E-6	-27.918275
1.54462E-6	-27.899492
1.544665E-6	-28.032713
1.54471E-6	-29.318141
1.544755E-6	-33.052194
1.5448E-6	-40.851282
1.544845E-6	-51.868195
1.54489E-6	-60.534004
1.544935E-6	-64.835969
1.54498E-6	-66.916491
1.545025E-6	-65.718652
1.54507E-6	-60.882566
1.545115E-6	-47.325936
1.54516E-6	-35.147046
1.545205E-6	-30.395292
1.54525E-6	-28.51089
1.545295E-6	-28.082696
1.54534E-6	-27.983298
1.545385E-6	-27.9588
1.54543E-6	-27.961515
1.545475E-6	-28.377344
1.54552E-6	-30.369681
1.545565E-6	-35.312097
1.54561E-6	-44.585456
1.545655E-6	-55.696024
1.5457E-6	-62.416938
1.545745E-6	-65.924392
1.54579E-6	-66.905828
1.545835E-6	-64.787311
1.54588E-6	-58.680607
1.545925E-6	-42.062096
1.54597E-6	-33.301255
1.546015E-6	-29.488475
1.54606E-6	-28.193008
1.546105E-6	-27.910215
1.54615E-6	-27.867479
1.546195E-6	-27.85421
1.54624E-6	-27.896815
1.546285E-6	-28.548036
1.54633E-6	-31.094672
1.546375E-6	-37.392133
1.54642E-6	-47.700623
1.546465E-6	-57.75726
1.54651E-6	-62.98432
1.546555E-6	-66.348866
1.5466E-6	-66.683703
1.546645E-6	-63.521282
1.54669E-6	-54.307432
1.546735E-6	-38.560489
1.54678E-6	-31.990081
1.546825E-6	-29.034376
1.54687E-6	-28.153086
1.546915E-6	-28.016179
1.54696E-6	-27.961515
1.547005E-6	-27.942545
1.54705E-6	-28.091083
1.547095E-6	-29.157813
1.54714E-6	-32.480284
1.547185E-6	-39.318141
1.54723E-6	-50.413883
1.547275E-6	-59.637705
1.54732E-6	-64.218194
1.547365E-6	-66.786087
1.54741E-6	-66.167233
1.547455E-6	-61.961334
1.5475E-6	-50.435434
1.547545E-6	-35.967079
1.54759E-6	-30.748943
1.547635E-6	-28.480176
1.54768E-6	-27.907532
1.547725E-6	-27.788467
1.54777E-6	-27.746907
1.547815E-6	-27.791078
1.54786E-6	-28.029953
1.547905E-6	-29.519468
1.54795E-6	-33.509574
1.547995E-6	-42.122562
1.54804E-6	-52.92515
1.548085E-6	-61.003983
1.54813E-6	-65.069604
1.548175E-6	-66.842395
1.54822E-6	-65.476002
1.548265E-6	-60.280287
1.54831E-6	-46.346993
1.548355E-6	-34.714689
1.5484E-6	-30.133626
1.548445E-6	-28.368386
1.54849E-6	-27.939841
1.548535E-6	-27.87546
1.54858E-6	-27.87546
1.548625E-6	-27.878124
1.54867E-6	-28.291518
1.548715E-6	-30.337644
1.54876E-6	-35.562678
1.548805E-6	-44.814861
1.54885E-6	-55.873715
1.548895E-6	-62.554723
1.54894E-6	-65.915904
1.548985E-6	-66.944337
1.54903E-6	-64.655931
1.549075E-6	-58.347557
1.54912E-6	-42.136746
1.549165E-6	-33.474636
1.54921E-6	-29.550685
1.549255E-6	-28.08549
1.5493E-6	-27.814645
1.549345E-6	-27.78325
1.54939E-6	-27.806775
1.549435E-6	-27.822529
1.54948E-6	-28.486301
1.549525E-6	-30.94744
1.54957E-6	-36.888822
1.549615E-6	-47.119745
1.54966E-6	-57.144427
1.549705E-6	-62.53833
1.54975E-6	-66.276404
1.549795E-6	-66.777807
1.54984E-6	-63.839448
1.549885E-6	-55.505216
1.54993E-6	-39.41574
1.549975E-6	-32.349278
1.55002E-6	-29.086848
1.550065E-6	-28.08549
1.55011E-6	-27.899492
1.550155E-6	-27.880789
1.5502E-6	-27.859513
1.550245E-6	-27.90485
1.55029E-6	-28.699881
1.550335E-6	-31.465452
1.55038E-6	-38.297383
1.550425E-6	-48.931295
1.55047E-6	-58.452718
1.550515E-6	-63.527149
1.55056E-6	-66.556077
1.550605E-6	-66.414941
1.55065E-6	-62.66562
1.550695E-6	-52.684112
1.55074E-6	-37.309543
1.550785E-6	-31.447232
1.55083E-6	-28.800846
1.550875E-6	-28.029953
1.55092E-6	-27.872798
1.550965E-6	-27.851562
1.55101E-6	-27.817271
1.551055E-6	-27.93444
1.5511E-6	-29.100949
1.551145E-6	-32.535994
1.55119E-6	-39.625735
1.551235E-6	-50.736061
1.55128E-6	-59.767475
1.551325E-6	-64.325031
1.55137E-6	-66.759234
1.551415E-6	-66.223296
1.55146E-6	-62.100669
1.551505E-6	-50.438316
1.55155E-6	-36.373291
1.551595E-6	-30.983782
1.55164E-6	-28.648673
1.551685E-6	-28.024438
1.55173E-6	-27.929045
1.551775E-6	-27.880789
1.55182E-6	-27.872798
1.551865E-6	-28.079904
1.55191E-6	-29.50782
1.551955E-6	-33.42275
1.552E-6	-41.266794
1.552045E-6	-52.035644
1.55209E-6	-60.742755
1.552135E-6	-64.890531
1.55218E-6	-66.91009
1.552225E-6	-65.667103
1.55227E-6	-60.835987
1.552315E-6	-47.68021
1.55236E-6	-35.244741
1.552405E-6	-30.372519
1.55245E-6	-28.428456
1.552495E-6	-27.999707
1.55254E-6	-27.93444
1.552585E-6	-27.878124
1.55263E-6	-27.867479
1.552675E-6	-28.167302
1.55272E-6	-29.897
1.552765E-6	-34.597957
1.55281E-6	-43.15963
1.552855E-6	-54.749552
1.5529E-6	-61.777011
1.552945E-6	-65.511392
1.55299E-6	-66.955095
1.553035E-6	-65.22011
1.55308E-6	-59.694003
1.553125E-6	-43.827899
1.55317E-6	-34.119525
1.553215E-6	-29.829667
1.55326E-6	-28.227522
1.553305E-6	-27.864822
1.55335E-6	-27.775437
1.553395E-6	-27.754669
1.55344E-6	-27.75726
1.553485E-6	-28.190144
1.55353E-6	-30.206793
1.553575E-6	-35.241836
1.55362E-6	-44.710833
1.553665E-6	-55.340226
1.55371E-6	-62.120439
1.553755E-6	-65.702477
1.5538E-6	-66.873996
1.553845E-6	-64.846561
1.55389E-6	-58.840568
1.553935E-6	-42.303273
1.55398E-6	-33.582285
1.554025E-6	-29.718356
1.55407E-6	-28.294449
1.554115E-6	-27.969671
1.55416E-6	-27.891466
1.554205E-6	-27.851562
1.55425E-6	-27.867479
1.554295E-6	-28.344589
1.55434E-6	-30.460954
1.554385E-6	-35.912514
1.55443E-6	-45.554868
1.554475E-6	-56.302277
1.55452E-6	-61.923297
1.554565E-6	-66.015392
1.55461E-6	-66.817279
1.554655E-6	-64.307432
1.5547E-6	-56.85922
1.554745E-6	-40.698153
1.55479E-6	-32.943928
1.554835E-6	-29.377942
1.55488E-6	-28.178708
1.554925E-6	-27.899492
1.55497E-6	-27.814645
1.555015E-6	-27.814645
1.55506E-6	-27.846268
1.555105E-6	-28.38632
1.55515E-6	-30.75514
1.555195E-6	-36.565914
1.55524E-6	-46.724367
1.555285E-6	-56.880343
1.55533E-6	-62.320283
1.555375E-6	-66.258017
1.55542E-6	-66.728455
1.555465E-6	-63.835245
1.55551E-6	-55.619325
1.555555E-6	-39.430951
1.5556E-6	-32.382225
1.555645E-6	-29.222688
1.55569E-6	-28.167302
1.555735E-6	-27.956087
1.55578E-6	-27.920965
1.555825E-6	-27.9129
1.55587E-6	-27.929045
1.555915E-6	-28.554258
1.55596E-6	-31.010007
1.556005E-6	-37.20105
1.55605E-6	-47.452103
1.556095E-6	-57.447275
1.55614E-6	-62.709973
1.556185E-6	-66.394066
1.55623E-6	-66.7305
1.556275E-6	-63.841551
1.55632E-6	-55.486742
1.556365E-6	-39.359166
1.55641E-6	-32.349278
1.556455E-6	-29.136402
1.5565E-6	-28.127614
1.556545E-6	-27.872798
1.55659E-6	-27.835702
1.556635E-6	-27.851562
1.55668E-6	-27.89414
1.556725E-6	-28.626459
1.55677E-6	-31.398417
1.556815E-6	-37.840982
1.55686E-6	-48.088285
1.556905E-6	-57.896815
1.55695E-6	-63.000756
1.556995E-6	-66.489771
1.55704E-6	-66.781945
1.557085E-6	-63.666326
1.55713E-6	-55.103227
1.557175E-6	-39.062282
1.55722E-6	-32.081691
1.557265E-6	-28.944898
1.55731E-6	-27.977842
1.557355E-6	-27.79369
1.5574E-6	-27.75726
1.557445E-6	-27.744323
1.55749E-6	-27.81202
1.557535E-6	-28.613816
1.55758E-6	-31.417035
1.557625E-6	-38.153086
1.55767E-6	-48.407337
1.557715E-6	-58.136088
1.55776E-6	-63.146166
1.557805E-6	-66.530605
1.55785E-6	-66.685727
1.557895E-6	-63.555614
1.55794E-6	-54.770344
1.557985E-6	-38.823973
1.55803E-6	-32.189631
1.558075E-6	-28.938091
1.55812E-6	-27.87546
1.558165E-6	-27.690404
1.55821E-6	-27.677665
1.558255E-6	-27.685304
1.5583E-6	-27.762445
1.558345E-6	-28.59492
1.55839E-6	-31.484359
1.558435E-6	-38.268137
1.55848E-6	-48.661419
1.558525E-6	-58.332739
1.55857E-6	-63.360165
1.558615E-6	-66.617428
1.55866E-6	-66.763355
1.558705E-6	-63.527149
1.55875E-6	-54.534573
1.558795E-6	-38.934691
1.55884E-6	-32.03495
1.558885E-6	-28.887375
1.55893E-6	-27.918275
1.558975E-6	-27.765041
1.55902E-6	-27.762445
1.559065E-6	-27.78325
1.55911E-6	-27.878124
1.559155E-6	-28.690233
1.5592E-6	-31.419443
1.559245E-6	-38.121974
1.55929E-6	-48.50473
1.559335E-6	-58.218867
1.55938E-6	-63.277174
1.559425E-6	-66.639407
1.55947E-6	-66.779876
1.559515E-6	-63.500813
1.55956E-6	-54.786004
1.559605E-6	-38.492436
1.55965E-6	-31.962698
1.559695E-6	-28.979095
1.55974E-6	-28.054857
1.559785E-6	-27.899492
1.55983E-6	-27.923656
1.559875E-6	-27.966951
1.55992E-6	-28.079904
1.559965E-6	-28.904215
1.56001E-6	-31.739252
1.560055E-6	-38.273971
1.5601E-6	-48.629625
1.560145E-6	-58.404328
1.56019E-6	-63.391345
1.560235E-6	-66.718243
1.56028E-6	-66.893067
1.560325E-6	-63.965308
1.56037E-6	-55.474469
1.560415E-6	-39.461536
1.56046E-6	-32.156681
1.560505E-6	-28.951716
1.56055E-6	-27.931741
1.560595E-6	-27.809397
1.56064E-6	-27.77804
1.560685E-6	-27.827793
1.56073E-6	-27.961515
1.560775E-6	-28.800846
1.56082E-6	-31.647535
1.560865E-6	-38.344589
1.56091E-6	-48.693447
1.560955E-6	-58.285661
1.561E-6	-63.459198
1.561045E-6	-66.759234
1.56109E-6	-66.955095
1.561135E-6	-63.949105
1.56118E-6	-55.73977
1.561225E-6	-39.411945
1.56127E-6	-32.163822
1.561315E-6	-28.941493
1.56136E-6	-27.93444
1.561405E-6	-27.775437
1.56145E-6	-27.798919
1.561495E-6	-27.835702
1.56154E-6	-27.9588
1.561585E-6	-28.693447
1.56163E-6	-31.325325
1.561675E-6	-37.754669
1.56172E-6	-47.726276
1.561765E-6	-57.637147
1.56181E-6	-62.932822
1.561855E-6	-66.591595
1.5619E-6	-67.139929
1.561945E-6	-64.701848
1.56199E-6	-57.996968
1.562035E-6	-41.105302
1.56208E-6	-32.958495
1.562125E-6	-29.248181
1.56217E-6	-27.986029
1.562215E-6	-27.788467
1.56226E-6	-27.817271
1.562305E-6	-27.90485
1.56235E-6	-28.005191
1.562395E-6	-28.544928
1.56244E-6	-30.75669
1.562485E-6	-36.285627
1.56253E-6	-45.751184
1.562575E-6	-56.544302
1.56262E-6	-62.168829
1.562665E-6	-66.283781
1.56271E-6	-67.189666
1.562755E-6	-65.145625
1.5628E-6	-59.164974
1.562845E-6	-42.581396
1.56289E-6	-33.443814
1.562935E-6	-29.453869
1.56298E-6	-27.9588
1.563025E-6	-27.708303
1.56307E-6	-27.754669
1.563115E-6	-27.833064
1.56316E-6	-27.947956
1.563205E-6	-28.443604
1.56325E-6	-30.54827
1.563295E-6	-35.762628
1.56334E-6	-45.578339
1.563385E-6	-55.99462
1.56343E-6	-62.572749
1.563475E-6	-66.294869
