Wavelength (nm)	Power (dBm)
1.525E-6	-50.56456
1.525045E-6	-50.408155
1.52509E-6	-50.492458
1.525135E-6	-50.950682
1.52518E-6	-51.455725
1.525225E-6	-51.599567
1.52527E-6	-51.552123
1.525315E-6	-51.436941
1.52536E-6	-51.335354
1.525405E-6	-51.204454
1.52545E-6	-50.975619
1.525495E-6	-50.27057
1.52554E-6	-49.284862
1.525585E-6	-48.591778
1.52563E-6	-48.282735
1.525675E-6	-48.096683
1.52572E-6	-47.907532
1.525765E-6	-47.710866
1.52581E-6	-47.547342
1.525855E-6	-47.654827
1.5259E-6	-48.288588
1.525945E-6	-49.262816
1.52599E-6	-49.788107
1.526035E-6	-49.833845
1.52608E-6	-49.763361
1.526125E-6	-49.689957
1.52617E-6	-49.597934
1.526215E-6	-49.400581
1.52626E-6	-48.604357
1.526305E-6	-47.253804
1.52635E-6	-46.281935
1.526395E-6	-45.841923
1.52644E-6	-45.617742
1.526485E-6	-45.477534
1.52653E-6	-45.349147
1.526575E-6	-45.238933
1.52662E-6	-45.325399
1.526665E-6	-46.07303
1.52671E-6	-47.297871
1.526755E-6	-48.227522
1.5268E-6	-48.419392
1.526845E-6	-48.38632
1.52689E-6	-48.288588
1.526935E-6	-48.210231
1.52698E-6	-48.038238
1.527025E-6	-47.135435
1.52707E-6	-45.459177
1.527115E-6	-44.23083
1.52716E-6	-43.709984
1.527205E-6	-43.484313
1.52725E-6	-43.409399
1.527295E-6	-43.318938
1.52734E-6	-43.165927
1.527385E-6	-43.245883
1.52743E-6	-43.92545
1.527475E-6	-45.394028
1.52752E-6	-46.825635
1.527565E-6	-47.318903
1.52761E-6	-47.309543
1.527655E-6	-47.309543
1.5277E-6	-47.233085
1.527745E-6	-47.155693
1.52779E-6	-46.478175
1.527835E-6	-44.597957
1.52788E-6	-42.954206
1.527925E-6	-42.192508
1.52797E-6	-41.974999
1.528015E-6	-41.959969
1.52806E-6	-41.888273
1.528105E-6	-41.819722
1.52815E-6	-41.83825
1.528195E-6	-42.31732
1.52824E-6	-43.747905
1.528285E-6	-45.696024
1.52833E-6	-46.671577
1.528375E-6	-46.838199
1.52842E-6	-46.838199
1.528465E-6	-46.781945
1.52851E-6	-46.784016
1.528555E-6	-46.341378
1.5286E-6	-44.577972
1.528645E-6	-42.527436
1.52869E-6	-41.520574
1.528735E-6	-41.233781
1.52878E-6	-41.132274
1.528825E-6	-41.111468
1.52887E-6	-41.098585
1.528915E-6	-41.07349
1.52896E-6	-41.36142
1.529005E-6	-42.647206
1.52905E-6	-44.753443
1.529095E-6	-46.311555
1.52914E-6	-46.720284
1.529185E-6	-46.765416
1.52923E-6	-46.701955
1.529275E-6	-46.390281
1.52932E-6	-44.655931
1.529365E-6	-34.014283
1.52941E-6	-24.22853
1.529455E-6	-19.965395
1.5295E-6	-18.332739
1.529545E-6	-17.939841
1.52959E-6	-17.870138
1.529635E-6	-17.775437
1.52968E-6	-17.746907
1.529725E-6	-18.529423
1.52977E-6	-21.419443
1.529815E-6	-28.201611
1.52986E-6	-38.703101
1.529905E-6	-44.416515
1.52995E-6	-46.307841
1.529995E-6	-46.714166
1.53004E-6	-46.798537
1.530085E-6	-46.804776
1.53013E-6	-46.013657
1.530175E-6	-43.792395
1.53022E-6	-41.800614
1.530265E-6	-40.896424
1.53031E-6	-40.68593
1.530355E-6	-40.635868
1.5304E-6	-40.616304
1.530445E-6	-40.620811
1.53049E-6	-40.674248
1.530535E-6	-41.217081
1.53058E-6	-42.722961
1.530625E-6	-45.114493
1.53067E-6	-46.601512
1.530715E-6	-46.916491
1.53076E-6	-46.916491
1.530805E-6	-46.846595
1.53085E-6	-46.382722
1.530895E-6	-43.213906
1.53094E-6	-29.991323
1.530985E-6	-22.447351
1.53103E-6	-19.35542
1.531075E-6	-18.401322
1.53112E-6	-18.193008
1.531165E-6	-18.164455
1.53121E-6	-18.107905
1.531255E-6	-18.250684
1.5313E-6	-19.500071
1.531345E-6	-23.202088
1.53139E-6	-31.060719
1.531435E-6	-40.687965
1.53148E-6	-45.397037
1.531525E-6	-46.617428
1.53157E-6	-46.897316
1.531615E-6	-46.957249
1.53166E-6	-46.817279
1.531705E-6	-45.495969
1.53175E-6	-43.051317
1.531795E-6	-41.314143
1.53184E-6	-40.706322
1.531885E-6	-40.597824
1.53193E-6	-40.579919
1.531975E-6	-40.607804
1.53202E-6	-40.598323
1.532065E-6	-40.700194
1.53211E-6	-41.438756
1.532155E-6	-43.313346
1.5322E-6	-45.689581
1.532245E-6	-46.779876
1.53229E-6	-46.970201
1.532335E-6	-46.970201
1.53238E-6	-46.855008
1.532425E-6	-46.160052
1.53247E-6	-40.979971
1.532515E-6	-27.137681
1.53256E-6	-21.238399
1.532605E-6	-18.867253
1.53265E-6	-18.244882
1.532695E-6	-18.10229
1.53274E-6	-18.110715
1.532785E-6	-18.164455
1.53283E-6	-18.50473
1.532875E-6	-20.192242
1.53292E-6	-24.72499
1.532965E-6	-33.600158
1.53301E-6	-42.299584
1.533055E-6	-45.888856
1.5331E-6	-46.736641
1.533145E-6	-46.920763
1.53319E-6	-46.968039
1.533235E-6	-46.751005
1.53328E-6	-45.217222
1.533325E-6	-42.948208
1.53337E-6	-41.497828
1.533415E-6	-41.036392
1.53346E-6	-40.971272
1.533505E-6	-40.976707
1.53355E-6	-41.007268
1.533595E-6	-41.106423
1.53364E-6	-41.310031
1.533685E-6	-42.189631
1.53373E-6	-44.077122
1.533775E-6	-46.067759
1.53382E-6	-46.863437
1.533865E-6	-46.96372
1.53391E-6	-46.965879
1.533955E-6	-46.802695
1.534E-6	-45.939711
1.534045E-6	-39.222688
1.53409E-6	-26.265363
1.534135E-6	-20.772227
1.53418E-6	-18.572978
1.534225E-6	-18.10229
1.53427E-6	-18.068754
1.534315E-6	-18.147412
1.53436E-6	-18.236193
1.534405E-6	-18.667805
1.53445E-6	-20.600317
1.534495E-6	-25.419668
1.53454E-6	-34.694161
1.534585E-6	-42.76134
1.53463E-6	-46.057235
1.534675E-6	-46.790233
1.53472E-6	-46.937895
1.534765E-6	-46.965879
1.53481E-6	-46.734593
1.534855E-6	-45.412111
1.5349E-6	-43.521282
1.534945E-6	-42.388242
1.53499E-6	-42.046067
1.535035E-6	-42.030789
1.53508E-6	-42.053726
1.535125E-6	-42.063493
1.53517E-6	-42.102078
1.535215E-6	-42.312879
1.53526E-6	-43.181259
1.535305E-6	-44.881166
1.53535E-6	-46.424463
1.535395E-6	-46.937895
1.53544E-6	-47.000571
1.535485E-6	-46.965879
1.53553E-6	-46.777807
1.535575E-6	-45.775743
1.53562E-6	-38.341624
1.535665E-6	-25.741399
1.53571E-6	-20.470139
1.535755E-6	-18.404328
1.5358E-6	-17.972393
1.535845E-6	-18.007935
1.53589E-6	-18.071539
1.535935E-6	-18.184422
1.53598E-6	-18.725712
1.536025E-6	-20.90551
1.53607E-6	-26.161846
1.536115E-6	-36.221476
1.53616E-6	-43.54676
1.536205E-6	-46.163641
1.53625E-6	-46.784016
1.536295E-6	-46.903698
1.53634E-6	-46.931463
1.536385E-6	-46.763355
1.53643E-6	-45.663902
1.536475E-6	-44.042834
1.53652E-6	-43.087416
1.536565E-6	-42.787666
1.53661E-6	-42.764622
1.536655E-6	-42.765443
1.5367E-6	-42.772838
1.536745E-6	-42.793446
1.53679E-6	-42.968807
1.536835E-6	-43.767507
1.53688E-6	-45.231684
1.536925E-6	-46.480105
1.53697E-6	-46.865546
1.537015E-6	-46.897316
1.53706E-6	-46.852903
1.537105E-6	-46.673596
1.53715E-6	-45.73001
1.537195E-6	-38.407337
1.53724E-6	-25.587763
1.537285E-6	-20.388163
1.53733E-6	-18.253588
1.537375E-6	-17.79369
1.53742E-6	-17.770236
1.537465E-6	-17.804155
1.53751E-6	-17.846268
1.537555E-6	-18.268137
1.5376E-6	-20.370154
1.537645E-6	-25.506759
1.53769E-6	-35.406075
1.537735E-6	-43.048687
1.53778E-6	-45.979106
1.537825E-6	-46.635403
1.53787E-6	-46.777807
1.537915E-6	-46.815193
1.53796E-6	-46.683703
1.538005E-6	-45.734887
1.53805E-6	-44.259687
1.538095E-6	-43.28642
1.53814E-6	-42.985184
1.538185E-6	-42.926002
1.53823E-6	-42.934529
1.538275E-6	-42.937945
1.53832E-6	-42.931116
1.538365E-6	-43.068009
1.53841E-6	-43.78616
1.538455E-6	-45.184141
1.5385E-6	-46.360122
1.538545E-6	-46.74895
1.53859E-6	-46.790233
1.538635E-6	-46.767479
1.53868E-6	-46.621416
1.538725E-6	-45.84359
1.53877E-6	-39.746941
1.538815E-6	-26.585655
1.53886E-6	-20.769633
1.538905E-6	-18.398317
1.53895E-6	-17.835702
1.538995E-6	-17.744323
1.53904E-6	-17.71343
1.539085E-6	-17.690404
1.53913E-6	-17.986029
1.539175E-6	-19.897
1.53922E-6	-24.728859
1.539265E-6	-34.339162
1.53931E-6	-42.553159
1.539355E-6	-45.775743
1.5394E-6	-46.552149
1.539445E-6	-46.726411
1.53949E-6	-46.761294
1.539535E-6	-46.661499
1.53958E-6	-45.744658
1.539625E-6	-44.250432
1.53967E-6	-43.21846
1.539715E-6	-42.890369
1.53976E-6	-42.813323
1.539805E-6	-42.789317
1.53985E-6	-42.787666
1.539895E-6	-42.79758
1.53994E-6	-42.896287
1.539985E-6	-43.5635
1.54003E-6	-44.960732
1.540075E-6	-46.252517
1.54012E-6	-46.703988
1.540165E-6	-46.779876
1.54021E-6	-46.767479
1.540255E-6	-46.639407
1.5403E-6	-46.036263
1.540345E-6	-41.103062
1.54039E-6	-27.321246
1.540435E-6	-21.195294
1.54048E-6	-18.582368
1.540525E-6	-17.85421
1.54057E-6	-17.721133
1.540615E-6	-17.68021
1.54066E-6	-17.62205
1.540705E-6	-17.848914
1.54075E-6	-19.484616
1.540795E-6	-23.76234
1.54084E-6	-32.69864
1.540885E-6	-41.570165
1.54093E-6	-45.529971
1.540975E-6	-46.522798
1.54102E-6	-46.718243
1.541065E-6	-46.763355
1.54111E-6	-46.683703
1.541155E-6	-45.900669
1.5412E-6	-44.298074
1.541245E-6	-43.075938
1.54129E-6	-42.61378
1.541335E-6	-42.487209
1.54138E-6	-42.455752
1.541425E-6	-42.438966
1.54147E-6	-42.441251
1.541515E-6	-42.53288
1.54156E-6	-43.09361
1.541605E-6	-44.434563
1.54165E-6	-45.999804
1.541695E-6	-46.659486
1.54174E-6	-46.781945
1.541785E-6	-46.773673
1.54183E-6	-46.683703
1.541875E-6	-46.214204
1.54192E-6	-43.196645
1.541965E-6	-29.582127
1.54201E-6	-22.03981
1.542055E-6	-18.989406
1.5421E-6	-18.016179
1.542145E-6	-17.840982
1.54219E-6	-17.77804
1.542235E-6	-17.726276
1.54228E-6	-17.840982
1.542325E-6	-18.982529
1.54237E-6	-22.463404
1.542415E-6	-30.006954
1.54246E-6	-39.884296
1.542505E-6	-44.93495
1.54255E-6	-46.373291
1.542595E-6	-46.675615
1.54264E-6	-46.742791
1.542685E-6	-46.714166
1.54273E-6	-46.149302
1.542775E-6	-44.483061
1.54282E-6	-43.014645
1.542865E-6	-42.373965
1.54291E-6	-42.228633
1.542955E-6	-42.211255
1.543E-6	-42.197547
1.543045E-6	-42.188193
1.54309E-6	-42.228633
1.543135E-6	-42.590849
1.54318E-6	-43.791355
1.543225E-6	-45.536182
1.54327E-6	-46.548224
1.543315E-6	-46.753061
1.54336E-6	-46.767479
1.543405E-6	-46.710091
1.54345E-6	-46.401645
1.543495E-6	-44.761235
1.54354E-6	-33.190303
1.543585E-6	-23.633116
1.54363E-6	-19.649707
1.543675E-6	-18.23041
1.54372E-6	-17.93444
1.543765E-6	-17.848914
1.54381E-6	-17.838341
1.543855E-6	-17.862167
1.5439E-6	-18.526329
1.543945E-6	-21.124952
1.54399E-6	-27.420815
1.544035E-6	-37.690404
1.54408E-6	-43.976144
1.544125E-6	-46.169031
1.54417E-6	-46.643415
1.544215E-6	-46.751005
1.54426E-6	-46.786087
1.544305E-6	-46.451236
1.54435E-6	-44.971634
1.544395E-6	-43.264262
1.54444E-6	-42.333641
1.544485E-6	-42.076784
1.54453E-6	-42.044676
1.544575E-6	-42.038421
1.54462E-6	-42.059304
1.544665E-6	-42.060002
1.54471E-6	-42.257751
1.544755E-6	-43.179452
1.5448E-6	-44.913356
1.544845E-6	-46.360122
1.54489E-6	-46.759234
1.544935E-6	-46.817279
1.54498E-6	-46.765416
1.545025E-6	-46.595559
1.54507E-6	-45.647929
1.545115E-6	-37.194216
1.54516E-6	-25.565805
1.545205E-6	-20.534986
1.54525E-6	-18.44057
1.545295E-6	-17.953375
1.54534E-6	-17.878124
1.545385E-6	-17.867479
1.54543E-6	-17.851562
1.545475E-6	-18.164455
1.54552E-6	-19.952488
1.545565E-6	-24.644527
1.54561E-6	-33.724293
1.545655E-6	-42.307704
1.5457E-6	-45.725139
1.545745E-6	-46.597542
1.54579E-6	-46.761294
1.545835E-6	-46.831912
1.54588E-6	-46.728455
1.545925E-6	-45.744658
1.54597E-6	-43.858413
1.546015E-6	-42.57825
1.54606E-6	-42.126104
1.546105E-6	-42.03495
1.54615E-6	-42.040505
1.546195E-6	-42.014875
1.54624E-6	-42.007973
1.546285E-6	-42.099965
1.54633E-6	-42.711594
1.546375E-6	-44.173686
1.54642E-6	-45.9176
1.546465E-6	-46.708056
1.54651E-6	-46.857113
1.546555E-6	-46.846595
1.5466E-6	-46.784016
1.546645E-6	-46.358244
1.54669E-6	-43.46691
1.546735E-6	-30.472076
1.54678E-6	-22.405588
1.546825E-6	-19.208188
1.54687E-6	-18.201611
1.546915E-6	-18.002448
1.54696E-6	-17.9588
1.547005E-6	-17.9588
1.54705E-6	-18.06319
1.547095E-6	-18.961963
1.54714E-6	-22.100669
1.547185E-6	-29.168559
1.54723E-6	-39.423339
1.547275E-6	-44.759936
1.54732E-6	-46.392173
1.547365E-6	-46.777807
1.54741E-6	-46.855008
1.547455E-6	-46.855008
1.5475E-6	-46.367642
1.547545E-6	-44.730149
1.54759E-6	-43.084765
1.547635E-6	-42.25629
1.54768E-6	-42.062794
1.547725E-6	-42.04259
1.54777E-6	-42.057909
1.547815E-6	-42.032176
1.54786E-6	-42.088008
1.547905E-6	-42.382225
1.54795E-6	-43.441895
1.547995E-6	-45.181276
1.54804E-6	-46.493644
1.548085E-6	-46.867657
1.54813E-6	-46.905828
1.548175E-6	-46.871882
1.54822E-6	-46.689778
1.548265E-6	-45.651119
1.54831E-6	-36.665527
1.548355E-6	-25.440898
1.5484E-6	-20.569509
1.548445E-6	-18.648673
1.54849E-6	-18.184422
1.548535E-6	-18.08549
1.54858E-6	-18.068754
1.548625E-6	-18.08549
1.54867E-6	-18.41336
1.548715E-6	-20.290491
1.54876E-6	-25.13853
1.548805E-6	-34.600462
1.54885E-6	-42.648804
1.548895E-6	-45.905741
1.54894E-6	-46.693833
1.548985E-6	-46.852903
1.54903E-6	-46.888822
1.549075E-6	-46.751005
1.54912E-6	-45.746288
1.549165E-6	-43.945872
1.54921E-6	-42.648005
1.549255E-6	-42.181011
1.5493E-6	-42.078886
1.549345E-6	-42.050939
1.54939E-6	-42.057909
1.549435E-6	-42.061398
1.54948E-6	-42.138877
1.549525E-6	-42.709973
1.54957E-6	-44.128505
1.549615E-6	-45.873715
1.54966E-6	-46.726411
1.549705E-6	-46.893067
1.54975E-6	-46.8867
1.549795E-6	-46.804776
1.54984E-6	-46.403542
1.549885E-6	-43.971807
1.54993E-6	-31.178741
1.549975E-6	-22.707542
1.55002E-6	-19.273825
1.550065E-6	-18.178708
1.55011E-6	-17.972393
1.550155E-6	-17.907532
1.5502E-6	-17.929045
1.550245E-6	-17.953375
1.55029E-6	-18.642315
1.550335E-6	-21.322969
1.55038E-6	-27.698066
1.550425E-6	-38.253588
1.55047E-6	-44.206738
1.550515E-6	-46.285627
1.55056E-6	-46.742791
1.550605E-6	-46.829819
1.55065E-6	-46.842395
1.550695E-6	-46.509168
1.55074E-6	-45.021033
1.550785E-6	-43.248635
1.55083E-6	-42.314359
1.550875E-6	-42.052332
1.55092E-6	-42.000395
1.550965E-6	-41.996954
1.55101E-6	-41.986649
1.551055E-6	-41.977738
1.5511E-6	-42.180293
1.551145E-6	-43.025963
1.55119E-6	-44.740487
1.551235E-6	-46.311555
1.55128E-6	-46.808939
1.551325E-6	-46.867657
1.55137E-6	-46.827727
1.551415E-6	-46.722325
1.55146E-6	-46.07303
1.551505E-6	-41.27902
1.55155E-6	-27.685304
1.551595E-6	-21.54282
1.55164E-6	-18.9279
1.551685E-6	-18.213108
1.55173E-6	-18.082696
1.551775E-6	-18.079904
1.55182E-6	-18.057633
1.551865E-6	-18.190144
1.55191E-6	-19.473061
1.551955E-6	-23.132744
1.552E-6	-31.064047
1.552045E-6	-40.509029
1.55209E-6	-45.231684
1.552135E-6	-46.505282
1.55218E-6	-46.757175
1.552225E-6	-46.813107
1.55227E-6	-46.78816
1.552315E-6	-46.108339
1.55236E-6	-44.325031
1.552405E-6	-42.7417
1.55245E-6	-42.031483
1.552495E-6	-41.88358
1.55254E-6	-41.880231
1.552585E-6	-41.868195
1.55263E-6	-41.860189
1.552675E-6	-41.8923
1.55272E-6	-42.240984
1.552765E-6	-43.419886
1.55281E-6	-45.272436
1.552855E-6	-46.509168
1.5529E-6	-46.806857
1.552945E-6	-46.823545
1.55299E-6	-46.781945
1.553035E-6	-46.5738
1.55308E-6	-45.386516
1.553125E-6	-35.932895
1.55317E-6	-24.789927
1.553215E-6	-20.189066
1.55326E-6	-18.425432
1.553305E-6	-18.046539
1.55335E-6	-17.983298
1.553395E-6	-17.929045
1.55344E-6	-17.918275
1.553485E-6	-18.253588
1.55353E-6	-20.139901
1.553575E-6	-24.889192
1.55362E-6	-34.237739
1.553665E-6	-42.293689
1.55371E-6	-45.734887
1.553755E-6	-46.595559
1.5538E-6	-46.759234
1.553845E-6	-46.804776
1.55389E-6	-46.687752
1.553935E-6	-45.611413
1.55398E-6	-43.718155
1.554025E-6	-42.35077
1.55407E-6	-41.858856
1.554115E-6	-41.756789
1.55416E-6	-41.754186
1.554205E-6	-41.738604
1.55425E-6	-41.726954
1.554295E-6	-41.796015
1.55434E-6	-42.323248
1.554385E-6	-43.73865
1.55443E-6	-45.608253
1.554475E-6	-46.605486
1.55452E-6	-46.804776
1.554565E-6	-46.817279
1.55461E-6	-46.771607
1.554655E-6	-46.455074
1.5547E-6	-44.546929
1.554745E-6	-32.75888
1.55479E-6	-23.571399
1.554835E-6	-19.779843
1.55488E-6	-18.45576
1.554925E-6	-18.173001
1.55497E-6	-18.096683
1.555015E-6	-18.06319
1.55506E-6	-18.04931
1.555105E-6	-18.529423
1.55515E-6	-20.708366
1.555195E-6	-26.216021
1.55524E-6	-36.143937
1.555285E-6	-43.37809
1.55533E-6	-46.03452
1.555375E-6	-46.661499
1.55542E-6	-46.767479
1.555465E-6	-46.792308
1.55551E-6	-46.575773
1.555555E-6	-45.254924
1.5556E-6	-43.312415
1.555645E-6	-42.121854
1.55569E-6	-41.723077
1.555735E-6	-41.638025
1.55578E-6	-41.627273
1.555825E-6	-41.627273
1.55587E-6	-41.625378
1.555915E-6	-41.751585
1.55596E-6	-42.379219
1.556005E-6	-43.89979
1.55605E-6	-45.780672
1.556095E-6	-46.649435
1.55614E-6	-46.804776
1.556185E-6	-46.813107
1.55623E-6	-46.73869
1.556275E-6	-46.332036
1.55632E-6	-43.95342
1.556365E-6	-31.146388
1.55641E-6	-22.955921
1.556455E-6	-19.427144
1.5565E-6	-18.27689
1.556545E-6	-18.04931
1.55659E-6	-18.005191
1.556635E-6	-17.994231
1.55668E-6	-18.06319
1.556725E-6	-18.683813
1.55677E-6	-21.149782
1.556815E-6	-27.389752
1.55686E-6	-37.461776
1.556905E-6	-43.950184
1.55695E-6	-46.156466
1.556995E-6	-46.665527
1.55704E-6	-46.765416
1.557085E-6	-46.775739
1.55713E-6	-46.501399
1.557175E-6	-45.086383
1.55722E-6	-43.155137
1.557265E-6	-42.055817
1.55731E-6	-41.722431
1.557355E-6	-41.637392
1.5574E-6	-41.651344
1.557445E-6	-41.664067
1.55749E-6	-41.665341
1.557535E-6	-41.799957
1.55758E-6	-42.504956
1.557625E-6	-44.130753
1.55767E-6	-45.915904
1.557715E-6	-46.695862
1.55776E-6	-46.819367
1.557805E-6	-46.817279
1.55785E-6	-46.73869
1.557895E-6	-46.309698
1.55794E-6	-43.56646
1.557985E-6	-30.547777
1.55803E-6	-22.564118
1.558075E-6	-19.229957
1.55812E-6	-18.091083
1.558165E-6	-17.859513
1.55821E-6	-17.838341
1.558255E-6	-17.867479
1.5583E-6	-17.93714
1.558345E-6	-18.655041
1.55839E-6	-21.406215
1.558435E-6	-27.888795
1.55848E-6	-38.005191
1.558525E-6	-44.066032
1.55857E-6	-46.237881
1.558615E-6	-46.701955
1.55866E-6	-46.798537
1.558705E-6	-46.827727
1.55875E-6	-46.558043
1.558795E-6	-45.134278
1.55884E-6	-43.279021
1.558885E-6	-42.204757
1.55893E-6	-41.894987
1.558975E-6	-41.847544
1.55902E-6	-41.870198
1.559065E-6	-41.879561
1.55911E-6	-41.861522
1.559155E-6	-41.985277
1.5592E-6	-42.687337
1.559245E-6	-44.293403
1.55929E-6	-46.031036
1.559335E-6	-46.771607
1.55938E-6	-46.882461
1.559425E-6	-46.876111
1.55947E-6	-46.811023
1.559515E-6	-46.35449
1.55956E-6	-43.417023
1.559605E-6	-30.363066
1.55965E-6	-22.437444
1.559695E-6	-19.226321
1.55974E-6	-18.23041
1.559785E-6	-18.082696
1.55983E-6	-18.105097
1.559875E-6	-18.124793
1.55992E-6	-18.207355
1.559965E-6	-18.917733
1.56001E-6	-21.602706
1.560055E-6	-27.953375
1.5601E-6	-38.077114
1.560145E-6	-44.245812
1.56019E-6	-46.346993
1.560235E-6	-46.821455
1.56028E-6	-46.916491
1.560325E-6	-46.957249
1.56037E-6	-46.732546
1.560415E-6	-45.468346
1.56046E-6	-43.674415
1.560505E-6	-42.602695
1.56055E-6	-42.294425
1.560595E-6	-42.263598
1.56064E-6	-42.273116
1.560685E-6	-42.279718
1.56073E-6	-42.287801
1.560775E-6	-42.415423
1.56082E-6	-43.07065
1.560865E-6	-44.524714
1.56091E-6	-46.185239
1.560955E-6	-46.882461
1.561E-6	-46.981023
1.561045E-6	-46.991872
1.56109E-6	-46.93575
1.561135E-6	-46.530605
1.56118E-6	-44.071573
1.561225E-6	-31.338309
1.56127E-6	-22.722961
1.561315E-6	-19.200955
1.56136E-6	-18.099486
1.561405E-6	-17.92635
1.56145E-6	-17.953375
1.561495E-6	-18.024438
1.56154E-6	-18.105097
1.561585E-6	-18.712777
1.56163E-6	-21.226863
1.561675E-6	-27.311881
1.56172E-6	-37.253804
1.561765E-6	-43.960982
1.56181E-6	-46.333903
1.561855E-6	-46.903698
1.5619E-6	-47.018021
1.561945E-6	-47.046529
1.56199E-6	-46.920763
1.562035E-6	-45.955084
1.56208E-6	-44.354523
1.562125E-6	-43.242217
1.56217E-6	-42.870979
1.562215E-6	-42.817475
1.56226E-6	-42.819968
1.562305E-6	-42.823295
1.56235E-6	-42.849163
1.562395E-6	-42.928558
1.56244E-6	-43.402739
1.562485E-6	-44.63063
1.56253E-6	-46.161846
1.562575E-6	-46.92504
1.56262E-6	-47.084092
1.562665E-6	-47.097427
1.56271E-6	-47.064165
1.562755E-6	-46.784016
1.5628E-6	-45.269512
1.562845E-6	-34.49527
1.56289E-6	-23.80385
1.562935E-6	-19.597934
1.56298E-6	-18.043771
1.563025E-6	-17.775437
1.56307E-6	-17.77804
1.563115E-6	-17.848914
1.56316E-6	-17.9588
1.563205E-6	-18.38632
1.56325E-6	-20.359762
1.563295E-6	-25.309147
1.56334E-6	-35.041782
1.563385E-6	-42.851675
1.56343E-6	-46.101254
1.563475E-6	-46.92932
