Wavelength (nm)	Power (dBm)
1.525E-6	-81.285438
1.525045E-6	-78.677403
1.52509E-6	-81.641826
1.525135E-6	-82.753146
1.52518E-6	-84.87449
1.525225E-6	-87.695511
1.52527E-6	-97.318903
1.525315E-6	-120
1.52536E-6	-89.295927
1.525405E-6	-90.420098
1.52545E-6	-87.867479
1.525495E-6	-85.482136
1.52554E-6	-84.30509
1.525585E-6	-80.814979
1.52563E-6	-80.167346
1.525675E-6	-79.430951
1.52572E-6	-78.944898
1.525765E-6	-79.722428
1.52581E-6	-79.582127
1.525855E-6	-79.143527
1.5259E-6	-80.47256
1.525945E-6	-83.12471
1.52599E-6	-86.067759
1.526035E-6	-100.268721
1.52608E-6	-93.600158
1.526125E-6	-89.292235
1.52617E-6	-87.864822
1.526215E-6	-91.979792
1.52626E-6	-87.035542
1.526305E-6	-81.803245
1.52635E-6	-79.527251
1.526395E-6	-78.777841
1.52644E-6	-77.564659
1.526485E-6	-77.867479
1.52653E-6	-78.273971
1.526575E-6	-77.734001
1.52662E-6	-77.627077
1.526665E-6	-79.248181
1.52671E-6	-81.772437
1.526755E-6	-85.675117
1.5268E-6	-89.965395
1.526845E-6	-92.459576
1.52689E-6	-91.855526
1.526935E-6	-90.798245
1.52698E-6	-90.164639
1.527025E-6	-94.079343
1.52707E-6	-79.661743
1.527115E-6	-78.443604
1.52716E-6	-77.253804
1.527205E-6	-77.151183
1.52725E-6	-76.918626
1.527295E-6	-76.806857
1.52734E-6	-76.73869
1.527385E-6	-76.914356
1.52743E-6	-77.328283
1.527475E-6	-79.423339
1.52752E-6	-82.971388
1.527565E-6	-88.703101
1.52761E-6	-92.091521
1.527655E-6	-120
1.5277E-6	-102.325473
1.527745E-6	-89.905491
1.52779E-6	-88.758219
1.527835E-6	-82.413909
1.52788E-6	-78.285661
1.527925E-6	-76.358244
1.52797E-6	-75.877075
1.528015E-6	-75.765903
1.52806E-6	-76.07303
1.528105E-6	-75.652715
1.52815E-6	-76.025815
1.528195E-6	-76.558043
1.52824E-6	-78.010681
1.528285E-6	-80.724243
1.52833E-6	-84.137504
1.528375E-6	-90.765487
1.52842E-6	-93.853137
1.528465E-6	-95.335773
1.52851E-6	-93.208448
1.528555E-6	-88.857227
1.5286E-6	-83.892334
1.528645E-6	-78.44057
1.52869E-6	-75.81533
1.528735E-6	-75.252012
1.52878E-6	-75.443939
1.528825E-6	-74.985299
1.52887E-6	-74.833324
1.528915E-6	-74.978461
1.52896E-6	-75.164127
1.529005E-6	-76.831912
1.52905E-6	-78.847224
1.529095E-6	-83.588235
1.52914E-6	-89.055289
1.529185E-6	-120
1.52923E-6	-94.514877
1.529275E-6	-93.489159
1.52932E-6	-89.24453
1.529365E-6	-84.399738
1.52941E-6	-79.453869
1.529455E-6	-75.370034
1.5295E-6	-74.391373
1.529545E-6	-74.66355
1.52959E-6	-74.414114
1.529635E-6	-74.48428
1.52968E-6	-74.509967
1.529725E-6	-74.464811
1.52977E-6	-75.407583
1.529815E-6	-77.632109
1.52986E-6	-81.589535
1.529905E-6	-88.013429
1.52995E-6	-120
1.529995E-6	-120
1.53004E-6	-104.001169
1.530085E-6	-120
1.53013E-6	-81.115397
1.530175E-6	-80.067402
1.53022E-6	-75.821963
1.530265E-6	-74.446637
1.53031E-6	-74.23083
1.530355E-6	-74.189611
1.5304E-6	-74.015378
1.530445E-6	-74.080454
1.53049E-6	-73.985919
1.530535E-6	-74.275931
1.53058E-6	-76.403542
1.530625E-6	-79.329291
1.53067E-6	-84.478187
1.530715E-6	-90.271494
1.53076E-6	-92.693792
1.530805E-6	-91.072934
1.53085E-6	-94.757337
1.530895E-6	-86.593576
1.53094E-6	-81.948391
1.530985E-6	-76.683703
1.53103E-6	-74.577972
1.531075E-6	-73.91688
1.53112E-6	-73.887016
1.531165E-6	-73.703866
1.53121E-6	-73.688607
1.531255E-6	-73.651199
1.5313E-6	-73.956659
1.531345E-6	-75.474469
1.53139E-6	-78.541823
1.531435E-6	-83.498868
1.53148E-6	-92.826624
1.531525E-6	-93.537924
1.53157E-6	-86.685727
1.531615E-6	-91.778973
1.53166E-6	-87.791078
1.531705E-6	-84.66991
1.53175E-6	-78.616973
1.531795E-6	-74.992148
1.53184E-6	-74.180503
1.531885E-6	-74.117283
1.53193E-6	-73.915809
1.531975E-6	-74.05497
1.53202E-6	-73.783045
1.532065E-6	-73.990271
1.53211E-6	-74.78339
1.532155E-6	-76.706021
1.5322E-6	-80.673233
1.532245E-6	-86.899443
1.53229E-6	-91.124952
1.532335E-6	-120
1.53238E-6	-96.771607
1.532425E-6	-88.027194
1.53247E-6	-92.474138
1.532515E-6	-81.357857
1.53256E-6	-76.029295
1.532605E-6	-74.470885
1.53265E-6	-74.038429
1.532695E-6	-74.103855
1.53274E-6	-74.164612
1.532785E-6	-74.089354
1.53283E-6	-74.019759
1.532875E-6	-74.417716
1.53292E-6	-76.038007
1.532965E-6	-79.450041
1.53301E-6	-84.024145
1.533055E-6	-89.359166
1.5331E-6	-92.787666
1.533145E-6	-91.628537
1.53319E-6	-90.550241
1.533235E-6	-100.483226
1.53328E-6	-85.647929
1.533325E-6	-78.279812
1.53337E-6	-75.835259
1.533415E-6	-74.264322
1.53346E-6	-74.417716
1.533505E-6	-74.626847
1.53355E-6	-74.506288
1.533595E-6	-74.675004
1.53364E-6	-74.846561
1.533685E-6	-75.68154
1.53373E-6	-78.616973
1.533775E-6	-82.583757
1.53382E-6	-89.854795
1.533865E-6	-89.161392
1.53391E-6	-87.93714
1.533955E-6	-89.746941
1.534E-6	-91.057947
1.534045E-6	-86.558043
1.53409E-6	-82.03495
1.534135E-6	-77.146678
1.53418E-6	-75.586191
1.534225E-6	-75.307673
1.53427E-6	-75.215778
1.534315E-6	-75.468346
1.53436E-6	-75.424209
1.534405E-6	-75.246194
1.53445E-6	-76.001533
1.534495E-6	-77.614521
1.53454E-6	-80.329203
1.534585E-6	-86.613443
1.53463E-6	-88.495506
1.534675E-6	-89.641702
1.53472E-6	-90.739664
1.534765E-6	-120
1.53481E-6	-89.986991
1.534855E-6	-83.91474
1.5349E-6	-79.453869
1.534945E-6	-76.794383
1.53499E-6	-76.104795
1.535035E-6	-75.830268
1.53508E-6	-75.949953
1.535125E-6	-76.430186
1.53517E-6	-76.281935
1.535215E-6	-76.532559
1.53526E-6	-77.512913
1.535305E-6	-79.665762
1.53535E-6	-84.570502
1.535395E-6	-89.219058
1.53544E-6	-90.466269
1.535485E-6	-91.658337
1.53553E-6	-88.674202
1.535575E-6	-82.166682
1.53562E-6	-69.04482
1.535665E-6	-54.530874
1.53571E-6	-48.944898
1.535755E-6	-46.685727
1.5358E-6	-46.163641
1.535845E-6	-46.163641
1.53589E-6	-46.239708
1.535935E-6	-46.375175
1.53598E-6	-46.871882
1.536025E-6	-48.948306
1.53607E-6	-53.881705
1.536115E-6	-63.104248
1.53616E-6	-72.382976
1.536205E-6	-78.989406
1.53625E-6	-84.962093
1.536295E-6	-88.422411
1.53634E-6	-89.017025
1.536385E-6	-85.915904
1.53643E-6	-83.634118
1.536475E-6	-80.877779
1.53652E-6	-78.271053
1.536565E-6	-77.469044
1.53661E-6	-77.307206
1.536655E-6	-77.263044
1.5367E-6	-77.337683
1.536745E-6	-76.882461
1.53679E-6	-77.762445
1.536835E-6	-78.843895
1.53688E-6	-80.682879
1.536925E-6	-85.802094
1.53697E-6	-86.493644
1.537015E-6	-120
1.53706E-6	-85.8603
1.537105E-6	-86.29672
1.53715E-6	-82.843309
1.537195E-6	-69.400581
1.53724E-6	-54.695442
1.537285E-6	-49.08333
1.53733E-6	-46.761294
1.537375E-6	-46.205132
1.53742E-6	-46.156466
1.537465E-6	-46.181632
1.53751E-6	-46.223296
1.537555E-6	-46.645421
1.5376E-6	-48.604357
1.537645E-6	-53.584267
1.53769E-6	-62.730284
1.537735E-6	-71.972947
1.53778E-6	-79.168559
1.537825E-6	-84.146521
1.53787E-6	-90.096611
1.537915E-6	-88.810742
1.53796E-6	-89.875846
1.538005E-6	-85.044557
1.53805E-6	-81.440571
1.538095E-6	-78.820662
1.53814E-6	-77.78325
1.538185E-6	-77.632109
1.53823E-6	-77.798919
1.538275E-6	-77.481185
1.53832E-6	-77.579558
1.538365E-6	-78.31208
1.53841E-6	-79.020489
1.538455E-6	-80.894823
1.5385E-6	-85.529971
1.538545E-6	-87.788467
1.53859E-6	-88.38632
1.538635E-6	-89.423339
1.53868E-6	-85.975667
1.538725E-6	-82.330669
1.53877E-6	-70.975619
1.538815E-6	-55.793842
1.53886E-6	-49.669786
1.538905E-6	-47.053134
1.53895E-6	-46.407338
1.538995E-6	-46.289321
1.53904E-6	-46.254349
1.539085E-6	-46.219657
1.53913E-6	-46.50334
1.539175E-6	-48.282735
1.53922E-6	-52.796753
1.539265E-6	-61.624116
1.53931E-6	-71.30299
1.539355E-6	-78.693447
1.5394E-6	-82.601904
1.539445E-6	-84.522253
1.53949E-6	-89.718356
1.539535E-6	-89.726504
1.53958E-6	-85.231684
1.539625E-6	-81.415831
1.53967E-6	-78.758219
1.539715E-6	-78.071539
1.53976E-6	-77.554755
1.539805E-6	-77.321246
1.53985E-6	-78.27689
1.539895E-6	-77.698066
1.53994E-6	-78.155925
1.539985E-6	-78.410347
1.54003E-6	-80.518806
1.540075E-6	-83.680492
1.54012E-6	-86.852903
1.540165E-6	-88.699881
1.54021E-6	-86.382722
1.540255E-6	-89.665762
1.5403E-6	-83.692671
1.540345E-6	-73.195738
1.54039E-6	-56.878226
1.540435E-6	-50.084195
1.54048E-6	-47.244583
1.540525E-6	-46.348866
1.54057E-6	-46.181632
1.540615E-6	-46.110112
1.54066E-6	-46.095948
1.540705E-6	-46.375175
1.54075E-6	-48.268137
1.540795E-6	-52.56647
1.54084E-6	-62.199709
1.540885E-6	-69.586073
1.54093E-6	-78.127614
1.540975E-6	-82.385232
1.54102E-6	-85.749551
1.541065E-6	-86.26904
1.54111E-6	-90.37678
1.541155E-6	-86.152883
1.5412E-6	-81.859523
1.541245E-6	-79.003194
1.54129E-6	-77.527635
1.541335E-6	-76.691805
1.54138E-6	-77.046529
1.541425E-6	-77.026773
1.54147E-6	-76.940041
1.541515E-6	-76.905828
1.54156E-6	-78.043771
1.541605E-6	-79.681877
1.54165E-6	-82.897134
1.541695E-6	-86.371407
1.54174E-6	-91.877553
1.541785E-6	-94.859838
1.54183E-6	-91.821042
1.541875E-6	-83.837346
1.54192E-6	-75.379016
1.541965E-6	-59.295927
1.54201E-6	-50.813931
1.542055E-6	-47.498241
1.5421E-6	-46.362001
1.542145E-6	-46.129663
1.54219E-6	-46.051982
1.542235E-6	-46.018863
1.54228E-6	-46.170829
1.542325E-6	-47.464197
1.54237E-6	-50.927499
1.542415E-6	-59.051796
1.54246E-6	-67.964232
1.542505E-6	-75.608253
1.54255E-6	-81.023179
1.542595E-6	-85.833595
1.54264E-6	-85.662302
1.542685E-6	-90.098388
1.54273E-6	-85.01276
1.542775E-6	-82.126812
1.54282E-6	-78.860566
1.542865E-6	-76.790233
1.54291E-6	-76.639407
1.542955E-6	-76.933606
1.543E-6	-76.589614
1.543045E-6	-76.261689
1.54309E-6	-76.575773
1.543135E-6	-77.142177
1.54318E-6	-78.85389
1.543225E-6	-81.471542
1.54327E-6	-85.189876
1.543315E-6	-120
1.54336E-6	-89.808837
1.543405E-6	-87.068585
1.54345E-6	-84.78339
1.543495E-6	-79.931063
1.54354E-6	-63.291977
1.543585E-6	-52.53833
1.54363E-6	-48.273971
1.543675E-6	-46.538427
1.54372E-6	-46.188849
1.543765E-6	-46.104795
1.54381E-6	-46.081831
1.543855E-6	-46.163641
1.5439E-6	-46.970201
1.543945E-6	-49.681877
1.54399E-6	-56.399749
1.544035E-6	-65.128616
1.54408E-6	-73.67138
1.544125E-6	-79.473061
1.54417E-6	-84.639468
1.544215E-6	-85.56737
1.54426E-6	-88.279812
1.544305E-6	-85.282683
1.54435E-6	-83.127387
1.544395E-6	-78.732194
1.54444E-6	-76.73869
1.544485E-6	-76.19427
1.54453E-6	-76.395959
1.544575E-6	-76.420652
1.54462E-6	-76.451236
1.544665E-6	-76.617428
1.54471E-6	-76.261689
1.544755E-6	-77.444863
1.5448E-6	-80.30258
1.544845E-6	-83.73865
1.54489E-6	-90.102388
1.544935E-6	-90.228253
1.54498E-6	-91.786175
1.545025E-6	-87.798919
1.54507E-6	-81.545299
1.545115E-6	-69.779843
1.54516E-6	-54.992148
1.545205E-6	-49.321855
1.54525E-6	-46.882461
1.545295E-6	-46.232406
1.54534E-6	-46.14215
1.545385E-6	-46.11366
1.54543E-6	-46.108339
1.545475E-6	-46.401645
1.54552E-6	-48.043771
1.545565E-6	-52.427558
1.54561E-6	-60.687456
1.545655E-6	-70.462403
1.5457E-6	-78.837244
1.545745E-6	-83.028579
1.54579E-6	-86.893067
1.545835E-6	-90.901766
1.54588E-6	-93.108688
1.545925E-6	-84.678829
1.54597E-6	-81.001795
1.546015E-6	-77.110804
1.54606E-6	-76.619421
1.546105E-6	-76.025815
1.54615E-6	-76.3865
1.546195E-6	-75.651119
1.54624E-6	-76.230582
1.546285E-6	-76.160052
1.54633E-6	-76.88458
1.546375E-6	-79.503944
1.54642E-6	-82.356744
1.546465E-6	-87.862167
1.54651E-6	-98.658229
1.546555E-6	-88.917733
1.5466E-6	-91.187866
1.546645E-6	-85.907433
1.54669E-6	-76.367642
1.546735E-6	-60.361178
1.54678E-6	-51.270866
1.546825E-6	-47.685304
1.54687E-6	-46.411138
1.546915E-6	-46.181632
1.54696E-6	-46.129663
1.547005E-6	-46.115435
1.54705E-6	-46.197888
1.547095E-6	-47.115272
1.54714E-6	-50.194967
1.547185E-6	-57.046529
1.54723E-6	-67.084092
1.547275E-6	-75.276825
1.54732E-6	-80.757207
1.547365E-6	-86.08712
1.54741E-6	-85.807053
1.547455E-6	-89.318141
1.5475E-6	-88.483238
1.547545E-6	-82.540668
1.54759E-6	-78.17015
1.547635E-6	-76.138579
1.54768E-6	-76.046736
1.547725E-6	-76.201508
1.54777E-6	-76.239708
1.547815E-6	-75.982549
1.54786E-6	-76.027554
1.547905E-6	-76.34512
1.54795E-6	-77.896815
1.547995E-6	-80.716041
1.54804E-6	-83.474636
1.548085E-6	-88.007935
1.54813E-6	-91.880231
1.548175E-6	-90.72527
1.54822E-6	-86.287474
1.548265E-6	-81.607734
1.54831E-6	-66.534514
1.548355E-6	-53.968556
1.5484E-6	-48.924509
1.548445E-6	-46.786087
1.54849E-6	-46.283781
1.548535E-6	-46.185239
1.54858E-6	-46.160052
1.548625E-6	-46.163641
1.54867E-6	-46.505282
1.548715E-6	-48.303256
1.54876E-6	-53.048687
1.548805E-6	-61.788141
1.54885E-6	-71.201589
1.548895E-6	-78.642315
1.54894E-6	-82.7597
1.548985E-6	-86.439741
1.54903E-6	-89.434763
1.549075E-6	-90.016099
1.54912E-6	-84.000078
1.549165E-6	-80.164639
1.54921E-6	-76.540385
1.549255E-6	-75.948245
1.5493E-6	-75.782316
1.549345E-6	-75.936302
1.54939E-6	-75.73977
1.549435E-6	-76.474316
1.54948E-6	-76.248853
1.549525E-6	-76.825635
1.54957E-6	-79.446217
1.549615E-6	-82.560984
1.54966E-6	-88.860566
1.549705E-6	-87.444863
1.54975E-6	-89.669786
1.549795E-6	-89.055289
1.54984E-6	-85.319482
1.549885E-6	-78.483238
1.54993E-6	-61.081282
1.549975E-6	-51.600194
1.55002E-6	-47.830428
1.550065E-6	-46.499459
1.55011E-6	-46.237881
1.550155E-6	-46.190655
1.5502E-6	-46.196078
1.550245E-6	-46.237881
1.55029E-6	-46.88458
1.550335E-6	-49.377942
1.55038E-6	-55.394028
1.550425E-6	-65.344684
1.55047E-6	-73.643152
1.550515E-6	-80.110845
1.55056E-6	-84.692882
1.550605E-6	-87.562181
1.55065E-6	-91.545919
1.550695E-6	-90.109063
1.55074E-6	-120
1.550785E-6	-79.090369
1.55083E-6	-76.615435
1.550875E-6	-76.192462
1.55092E-6	-75.734887
1.550965E-6	-75.659104
1.55101E-6	-75.633604
1.551055E-6	-75.99462
1.5511E-6	-76.322715
1.551145E-6	-76.92504
1.55119E-6	-79.685915
1.551235E-6	-84.043936
1.55128E-6	-86.307841
1.551325E-6	-90.942041
1.55137E-6	-99.288547
1.551415E-6	-87.629592
1.55146E-6	-82.546129
1.551505E-6	-72.001083
1.55155E-6	-56.377061
1.551595E-6	-49.982663
1.55164E-6	-47.223908
1.551685E-6	-46.416844
1.55173E-6	-46.26904
1.551775E-6	-46.243364
1.55182E-6	-46.258017
1.551865E-6	-46.401645
1.55191E-6	-47.627077
1.551955E-6	-51.317083
1.552E-6	-59.237237
1.552045E-6	-69.523358
1.55209E-6	-77.018021
1.552135E-6	-82.103488
1.55218E-6	-85.260753
1.552225E-6	-85.547072
1.55227E-6	-89.833845
1.552315E-6	-85.161275
1.55236E-6	-82.223557
1.552405E-6	-76.987529
1.55245E-6	-76.324577
1.552495E-6	-75.970512
1.55254E-6	-75.828606
1.552585E-6	-76.252517
1.55263E-6	-76.036263
1.552675E-6	-75.932895
1.55272E-6	-75.955084
1.552765E-6	-78.33866
1.55281E-6	-81.121015
1.552855E-6	-84.571746
1.5529E-6	-90.795636
1.552945E-6	-120
1.55299E-6	-89.746941
1.553035E-6	-86.401645
1.55308E-6	-80.802945
1.553125E-6	-65.787252
1.55317E-6	-53.656235
1.553215E-6	-48.598063
1.55326E-6	-46.561977
1.553305E-6	-46.106567
1.55335E-6	-46.036263
1.553395E-6	-45.979106
1.55344E-6	-46.006725
1.553485E-6	-46.441655
1.55353E-6	-48.582368
1.553575E-6	-53.302184
1.55362E-6	-61.27902
1.553665E-6	-70.195875
1.55371E-6	-78.467951
1.553755E-6	-83.144374
1.5538E-6	-90.473044
1.553845E-6	-86.790233
1.55389E-6	-89.04482
1.553935E-6	-83.481407
1.55398E-6	-80.355989
1.554025E-6	-76.352614
1.55407E-6	-75.892228
1.554115E-6	-75.861975
1.55416E-6	-75.533075
1.554205E-6	-75.644741
1.55425E-6	-75.912514
1.554295E-6	-75.678327
1.55434E-6	-76.657474
1.554385E-6	-78.383326
1.55443E-6	-81.737956
1.554475E-6	-86.970201
1.55452E-6	-93.21846
1.554565E-6	-91.73666
1.55461E-6	-88.787685
1.554655E-6	-84.813545
1.5547E-6	-79.694003
1.554745E-6	-62.870979
1.55479E-6	-52.121854
1.554835E-6	-48.096683
1.55488E-6	-46.5738
1.554925E-6	-46.252517
1.55497E-6	-46.196078
1.555015E-6	-46.160052
1.55506E-6	-46.176227
1.555105E-6	-46.617428
1.55515E-6	-48.758219
1.555195E-6	-54.119525
1.55524E-6	-63.481407
1.555285E-6	-72.696215
1.55533E-6	-79.673812
1.555375E-6	-83.838397
1.55542E-6	-86.428277
1.555465E-6	-88.198741
1.55551E-6	-86.507225
1.555555E-6	-83.714067
1.5556E-6	-78.877302
1.555645E-6	-76.283781
1.55569E-6	-75.463759
1.555735E-6	-75.749551
1.55578E-6	-75.833595
1.555825E-6	-75.318004
1.55587E-6	-75.322439
1.555915E-6	-75.488278
1.55596E-6	-76.309698
1.556005E-6	-78.401322
1.55605E-6	-81.728893
1.556095E-6	-86.645421
1.55614E-6	-93.653212
1.556185E-6	-87.344747
1.55623E-6	-87.62205
1.556275E-6	-87.279262
1.55632E-6	-78.383326
1.556365E-6	-60.513426
1.55641E-6	-51.283687
1.556455E-6	-47.609509
1.5565E-6	-46.35449
1.556545E-6	-46.095948
1.55659E-6	-46.067759
1.556635E-6	-46.039751
1.55668E-6	-46.083593
1.556725E-6	-46.665527
1.55677E-6	-49.072794
1.556815E-6	-55.005879
1.55686E-6	-64.641997
1.556905E-6	-73.34419
1.55695E-6	-79.500071
1.556995E-6	-85.641556
1.55704E-6	-86.827727
1.557085E-6	-87.589518
1.55713E-6	-85.407583
1.557175E-6	-81.934131
1.55722E-6	-78.860566
1.557265E-6	-76.449318
1.55731E-6	-75.506759
1.557355E-6	-75.609833
1.5574E-6	-75.465288
1.557445E-6	-75.8603
1.55749E-6	-75.446982
1.557535E-6	-75.605094
1.55758E-6	-76.451236
1.557625E-6	-79.222688
1.55767E-6	-82.974833
1.557715E-6	-86.775739
1.55776E-6	-86.26904
1.557805E-6	-86.991872
1.55785E-6	-86.495581
1.557895E-6	-85.912514
1.55794E-6	-75.713793
1.557985E-6	-59.515582
1.55803E-6	-50.92965
1.558075E-6	-47.469044
1.55812E-6	-46.241536
1.558165E-6	-45.998075
1.55821E-6	-45.979106
1.558255E-6	-46.004993
1.5583E-6	-46.092415
1.558345E-6	-46.882461
1.55839E-6	-49.633711
1.558435E-6	-56.293019
1.55848E-6	-65.103227
1.558525E-6	-73.825803
1.55857E-6	-79.601894
1.558615E-6	-83.940488
1.55866E-6	-86.985359
1.558705E-6	-87.788467
1.55875E-6	-89.788107
1.558795E-6	-83.91688
1.55884E-6	-78.941493
1.558885E-6	-76.50334
1.55893E-6	-75.564241
1.558975E-6	-76.122543
1.55902E-6	-75.630427
1.559065E-6	-75.503673
1.55911E-6	-75.228787
1.559155E-6	-75.660702
1.5592E-6	-77.300203
1.559245E-6	-79.550685
1.55929E-6	-83.569423
1.559335E-6	-89.689957
1.55938E-6	-97.21475
1.559425E-6	-101.487417
1.55947E-6	-87.510464
1.559515E-6	-84.156688
1.55956E-6	-78.507809
1.559605E-6	-60.492945
1.55965E-6	-51.404414
1.559695E-6	-47.736579
1.55974E-6	-46.476245
1.559785E-6	-46.252517
1.55983E-6	-46.265363
1.559875E-6	-46.305986
1.55992E-6	-46.365761
1.559965E-6	-47.035542
1.56001E-6	-49.617774
1.560055E-6	-55.765903
1.5601E-6	-65.499049
1.560145E-6	-74.285241
1.56019E-6	-79.800533
1.560235E-6	-83.924378
1.56028E-6	-86.852903
1.560325E-6	-91.077384
1.56037E-6	-86.720284
1.560415E-6	-83.593198
1.56046E-6	-79.284862
1.560505E-6	-77.035542
1.56055E-6	-76.187044
1.560595E-6	-76.055483
1.56064E-6	-76.174427
1.560685E-6	-76.14215
1.56073E-6	-76.356366
1.560775E-6	-76.66956
1.56082E-6	-77.342391
1.560865E-6	-79.347939
1.56091E-6	-82.836627
1.560955E-6	-84.308603
1.561E-6	-90.074023
1.561045E-6	-87.481185
1.56109E-6	-87.033348
1.561135E-6	-88.395315
1.56118E-6	-88.639139
1.561225E-6	-86.759234
1.56127E-6	-80.577935
1.561315E-6	-77.527635
1.56136E-6	-76.633402
1.561405E-6	-76.554113
1.56145E-6	-76.480105
1.561495E-6	-76.798537
1.56154E-6	-76.857113
1.561585E-6	-76.683703
1.56163E-6	-77.447275
1.561675E-6	-79.215432
1.56172E-6	-82.215593
1.561765E-6	-87.659892
1.56181E-6	-88.513973
1.561855E-6	-91.667891
1.5619E-6	-120
1.561945E-6	-89.006647
1.56199E-6	-91.816421
1.562035E-6	-87.454519
1.56208E-6	-80.898026
1.562125E-6	-78.696662
1.56217E-6	-77.198771
1.562215E-6	-77.088532
1.56226E-6	-77.013652
1.562305E-6	-77.097427
1.56235E-6	-76.852903
1.562395E-6	-77.33298
1.56244E-6	-77.10411
1.562485E-6	-79.310724
1.56253E-6	-82.238075
1.562575E-6	-86.17983
1.56262E-6	-86.256183
1.562665E-6	-85.536182
1.56271E-6	-89.154237
1.562755E-6	-94.581712
1.5628E-6	-92.533658
1.562845E-6	-88.604357
1.56289E-6	-79.880069
1.562935E-6	-79.097419
1.56298E-6	-77.530093
1.563025E-6	-77.23768
1.56307E-6	-77.263044
1.563115E-6	-78.141746
1.56316E-6	-77.754669
1.563205E-6	-77.396901
1.56325E-6	-77.527635
1.563295E-6	-79.645703
1.56334E-6	-82.417696
1.563385E-6	-88.613816
1.56343E-6	-120
1.563475E-6	-87.726276
1.56352E-6	-93.07065
1.563565E-6	-88.728952
