Wavelength (nm)	Power (dBm)
1.525E-6	-73.52617
1.525045E-6	-73.333884
1.52509E-6	-74.028535
1.525135E-6	-76.183435
1.52518E-6	-79.542859
1.525225E-6	-83.385659
1.52527E-6	-84.986668
1.525315E-6	-84.690323
1.52536E-6	-84.579219
1.525405E-6	-84.024145
1.52545E-6	-83.364875
1.525495E-6	-79.438577
1.52554E-6	-74.808285
1.525585E-6	-72.901367
1.52563E-6	-72.326215
1.525675E-6	-72.23081
1.52572E-6	-72.106308
1.525765E-6	-71.636126
1.52581E-6	-71.79142
1.525855E-6	-72.095741
1.5259E-6	-73.629107
1.525945E-6	-76.959405
1.52599E-6	-80.985417
1.526035E-6	-83.464016
1.52608E-6	-83.421795
1.526125E-6	-86.505282
1.52617E-6	-85.195619
1.526215E-6	-85.619325
1.52626E-6	-79.090369
1.526305E-6	-73.673403
1.52635E-6	-71.572036
1.526395E-6	-70.990324
1.52644E-6	-70.771189
1.526485E-6	-70.764969
1.52653E-6	-70.5532
1.526575E-6	-70.559617
1.52662E-6	-70.689492
1.526665E-6	-71.876884
1.52671E-6	-75.198493
1.526755E-6	-79.226321
1.5268E-6	-83.518352
1.526845E-6	-84.683934
1.52689E-6	-83.634118
1.526935E-6	-84.439388
1.52698E-6	-83.481407
1.527025E-6	-79.408154
1.52707E-6	-73.435185
1.527115E-6	-70.843364
1.52716E-6	-69.850597
1.527205E-6	-69.523358
1.52725E-6	-69.535048
1.527295E-6	-69.385475
1.52734E-6	-69.419538
1.527385E-6	-69.469216
1.52743E-6	-70.36779
1.527475E-6	-72.768728
1.52752E-6	-76.216021
1.527565E-6	-81.123264
1.52761E-6	-85.244741
1.527655E-6	-84.452686
1.5277E-6	-83.746875
1.527745E-6	-83.934037
1.52779E-6	-80.217282
1.527835E-6	-73.740705
1.52788E-6	-70.359762
1.527925E-6	-68.951716
1.52797E-6	-68.610661
1.528015E-6	-68.507809
1.52806E-6	-68.467951
1.528105E-6	-68.401322
1.52815E-6	-68.458805
1.528195E-6	-69.034376
1.52824E-6	-70.872467
1.528285E-6	-74.947143
1.52833E-6	-79.333014
1.528375E-6	-82.346295
1.52842E-6	-83.855246
1.528465E-6	-83.167728
1.52851E-6	-80.388163
1.528555E-6	-71.588909
1.5286E-6	-55.257837
1.528645E-6	-47.710866
1.52869E-6	-44.116162
1.528735E-6	-43.239469
1.52878E-6	-43.046059
1.528825E-6	-42.901367
1.52887E-6	-42.840802
1.528915E-6	-42.999023
1.52896E-6	-44.534573
1.529005E-6	-48.91435
1.52905E-6	-57.770236
1.529095E-6	-66.145725
1.52914E-6	-74.037329
1.529185E-6	-79.118639
1.52923E-6	-81.759393
1.529275E-6	-81.066267
1.52932E-6	-75.005879
1.529365E-6	-59.763361
1.52941E-6	-49.366666
1.529455E-6	-44.713404
1.5295E-6	-43.299398
1.529545E-6	-42.991233
1.52959E-6	-42.878556
1.529635E-6	-42.796753
1.52968E-6	-42.83329
1.529725E-6	-43.7202
1.52977E-6	-46.880343
1.529815E-6	-53.540867
1.52986E-6	-62.510371
1.529905E-6	-71.064047
1.52995E-6	-77.672579
1.529995E-6	-80.584886
1.53004E-6	-80.911934
1.530085E-6	-76.878226
1.53013E-6	-64.870489
1.530175E-6	-51.567049
1.53022E-6	-45.568935
1.530265E-6	-43.581295
1.53031E-6	-43.116692
1.530355E-6	-42.934529
1.5304E-6	-42.868456
1.530445E-6	-42.813323
1.53049E-6	-43.236723
1.530535E-6	-45.497509
1.53058E-6	-50.443603
1.530625E-6	-61.146953
1.53067E-6	-69.208188
1.530715E-6	-75.914209
1.53076E-6	-79.629721
1.530805E-6	-81.529211
1.53085E-6	-79.219058
1.530895E-6	-71.214208
1.53094E-6	-54.825402
1.530985E-6	-47.447275
1.53103E-6	-43.967473
1.531075E-6	-43.137213
1.53112E-6	-43.001623
1.531165E-6	-42.972249
1.53121E-6	-42.911544
1.531255E-6	-43.031196
1.5313E-6	-44.470885
1.531345E-6	-48.422411
1.53139E-6	-56.544302
1.531435E-6	-65.663902
1.53148E-6	-73.255982
1.531525E-6	-78.623295
1.53157E-6	-80.977251
1.531615E-6	-80.474013
1.53166E-6	-74.704413
1.531705E-6	-60.00913
1.53175E-6	-49.333014
1.531795E-6	-44.546929
1.53184E-6	-43.19302
1.531885E-6	-42.865935
1.53193E-6	-42.861736
1.531975E-6	-42.865935
1.53202E-6	-42.895441
1.532065E-6	-43.766473
1.53211E-6	-46.7305
1.532155E-6	-53.080349
1.5322E-6	-61.923297
1.532245E-6	-70.803467
1.53229E-6	-77.263044
1.532335E-6	-80.283531
1.53238E-6	-81.650074
1.532425E-6	-78.53252
1.53247E-6	-66.33577
1.532515E-6	-52.121854
1.53256E-6	-45.592483
1.532605E-6	-43.452461
1.53265E-6	-42.920043
1.532695E-6	-42.88699
1.53274E-6	-42.888679
1.532785E-6	-42.926854
1.53283E-6	-43.341377
1.532875E-6	-45.262212
1.53292E-6	-49.689957
1.532965E-6	-59.303319
1.53301E-6	-67.977842
1.533055E-6	-74.9485
1.5331E-6	-79.266483
1.533145E-6	-81.850868
1.53319E-6	-80.512937
1.533235E-6	-73.126494
1.53328E-6	-56.85922
1.533325E-6	-48.215987
1.53337E-6	-44.116162
1.533415E-6	-43.052194
1.53346E-6	-42.90052
1.533505E-6	-42.912393
1.53355E-6	-42.943073
1.533595E-6	-43.139897
1.53364E-6	-44.273607
1.533685E-6	-47.554755
1.53373E-6	-54.46117
1.533775E-6	-63.670368
1.53382E-6	-71.705676
1.533865E-6	-78.04931
1.53391E-6	-81.305336
1.533955E-6	-80.916759
1.534E-6	-77.274622
1.534045E-6	-64.319157
1.53409E-6	-51.191864
1.534135E-6	-45.188441
1.53418E-6	-43.237638
1.534225E-6	-42.918341
1.53427E-6	-42.919192
1.534315E-6	-42.980868
1.53436E-6	-43.075938
1.534405E-6	-43.734543
1.53445E-6	-46.110112
1.534495E-6	-51.332992
1.53454E-6	-61.702461
1.534585E-6	-69.804683
1.53463E-6	-76.708056
1.534675E-6	-80.015663
1.53472E-6	-81.002889
1.534765E-6	-79.931063
1.53481E-6	-71.996266
1.534855E-6	-55.443939
1.5349E-6	-47.416022
1.534945E-6	-43.773716
1.53499E-6	-42.933675
1.535035E-6	-42.885302
1.53508E-6	-42.953348
1.535125E-6	-43.045183
1.53517E-6	-43.362991
1.535215E-6	-44.752146
1.53526E-6	-48.551146
1.535305E-6	-56.267201
1.53535E-6	-65.210009
1.535395E-6	-73.055703
1.53544E-6	-79.003194
1.535485E-6	-80.966929
1.53553E-6	-81.229744
1.535575E-6	-76.409238
1.53562E-6	-63.543813
1.535665E-6	-50.749459
1.53571E-6	-45.05289
1.535755E-6	-43.240385
1.5358E-6	-42.918341
1.535845E-6	-42.97311
1.53589E-6	-43.040807
1.535935E-6	-43.209357
1.53598E-6	-43.84576
1.536025E-6	-46.414941
1.53607E-6	-51.701176
1.536115E-6	-62.690563
1.53616E-6	-69.41574
1.536205E-6	-76.763355
1.53625E-6	-79.825493
1.536295E-6	-81.75744
1.53634E-6	-79.492337
1.536385E-6	-72.353009
1.53643E-6	-55.73001
1.536475E-6	-47.50557
1.53652E-6	-43.811155
1.536565E-6	-42.96107
1.53661E-6	-42.861736
1.536655E-6	-42.930263
1.5367E-6	-43.020736
1.536745E-6	-43.277174
1.53679E-6	-44.635678
1.536835E-6	-48.569852
1.53688E-6	-56.563945
1.536925E-6	-65.715412
1.53697E-6	-73.254144
1.537015E-6	-79.763361
1.53706E-6	-81.100264
1.537105E-6	-80.954467
1.53715E-6	-76.540385
1.537195E-6	-63.84892
1.53724E-6	-50.783135
1.537285E-6	-45.084982
1.53733E-6	-43.199366
1.537375E-6	-42.83329
1.53742E-6	-42.860057
1.537465E-6	-42.881928
1.53751E-6	-42.938799
1.537555E-6	-43.531064
1.5376E-6	-45.941416
1.537645E-6	-51.342448
1.53769E-6	-62.279718
1.537735E-6	-69.299621
1.53778E-6	-77.486051
1.537825E-6	-79.982663
1.53787E-6	-81.907097
1.537915E-6	-80.445528
1.53796E-6	-73.100699
1.538005E-6	-56.800616
1.53805E-6	-48.124793
1.538095E-6	-44.001169
1.53814E-6	-42.960212
1.538185E-6	-42.846653
1.53823E-6	-42.829123
1.538275E-6	-42.821631
1.53832E-6	-42.926002
1.538365E-6	-44.207882
1.53841E-6	-48.005191
1.538455E-6	-55.764265
1.5385E-6	-64.828041
1.538545E-6	-72.636035
1.53859E-6	-77.700623
1.538635E-6	-80.487596
1.53868E-6	-81.919241
1.538725E-6	-76.78816
1.53877E-6	-64.918745
1.538815E-6	-51.947711
1.53886E-6	-46.151092
1.538905E-6	-43.533023
1.53895E-6	-43.096267
1.538995E-6	-43.028579
1.53904E-6	-42.993828
1.539085E-6	-42.96107
1.53913E-6	-43.408447
1.539175E-6	-45.601938
1.53922E-6	-50.535477
1.539265E-6	-61.049644
1.53931E-6	-69.469216
1.539355E-6	-76.074789
1.5394E-6	-79.779843
1.539445E-6	-81.992829
1.53949E-6	-79.742846
1.539535E-6	-74.314463
1.53958E-6	-58.380334
1.539625E-6	-48.696662
1.53967E-6	-44.491604
1.539715E-6	-43.292904
1.53976E-6	-43.079466
1.539805E-6	-43.040807
1.53985E-6	-43.0103
1.539895E-6	-43.029451
1.53994E-6	-44.110564
1.539985E-6	-47.572102
1.54003E-6	-54.826721
1.540075E-6	-64.011001
1.54012E-6	-72.036338
1.540165E-6	-77.500682
1.54021E-6	-80.777418
1.540255E-6	-82.385984
1.5403E-6	-78.972234
1.540345E-6	-68.85389
1.54039E-6	-53.0103
1.540435E-6	-46.583677
1.54048E-6	-43.624102
1.540525E-6	-43.047811
1.54057E-6	-42.935383
1.540615E-6	-42.844981
1.54066E-6	-42.826624
1.540705E-6	-43.152444
1.54075E-6	-45.094797
1.540795E-6	-49.574245
1.54084E-6	-59.259153
1.540885E-6	-67.833064
1.54093E-6	-74.824083
1.540975E-6	-79.240882
1.54102E-6	-81.12214
1.541065E-6	-81.129456
1.54111E-6	-75.433304
1.541155E-6	-60.621312
1.5412E-6	-49.511699
1.541245E-6	-44.800408
1.54129E-6	-43.385659
1.541335E-6	-43.062731
1.54138E-6	-43.001623
1.541425E-6	-42.934529
1.54147E-6	-42.968807
1.541515E-6	-43.748934
1.54156E-6	-46.631402
1.541605E-6	-52.726214
1.54165E-6	-61.311206
1.541695E-6	-70.213631
1.54174E-6	-77.057543
1.541785E-6	-80.094836
1.54183E-6	-81.848209
1.541875E-6	-79.219058
1.54192E-6	-71.214208
1.541965E-6	-54.550642
1.54201E-6	-47.217038
1.542055E-6	-43.852082
1.5421E-6	-43.071531
1.542145E-6	-42.883615
1.54219E-6	-42.829123
1.542235E-6	-42.803373
1.54228E-6	-42.924298
1.542325E-6	-44.329736
1.54237E-6	-48.155925
1.542415E-6	-56.151092
1.54246E-6	-65.230235
1.542505E-6	-72.543788
1.54255E-6	-78.425432
1.542595E-6	-81.368557
1.54264E-6	-81.668529
1.542685E-6	-77.164726
1.54273E-6	-64.481842
1.542775E-6	-51.612768
1.54282E-6	-45.477534
1.542865E-6	-43.547743
1.54291E-6	-43.083881
1.542955E-6	-42.991233
1.543E-6	-42.973972
1.543045E-6	-42.947351
1.54309E-6	-43.310553
1.543135E-6	-45.370034
1.54318E-6	-50.209071
1.543225E-6	-60.449861
1.54327E-6	-68.884015
1.543315E-6	-75.611413
1.54336E-6	-79.237237
1.543405E-6	-81.704389
1.54345E-6	-80.784176
1.543495E-6	-74.367563
1.54354E-6	-59.321855
1.543585E-6	-48.979095
1.54363E-6	-44.503838
1.543675E-6	-43.265183
1.54372E-6	-43.001623
1.543765E-6	-42.968807
1.54381E-6	-42.937945
1.543855E-6	-43.030324
1.5439E-6	-43.915809
1.543945E-6	-46.948637
1.54399E-6	-53.419886
1.544035E-6	-62.720523
1.54408E-6	-71.160548
1.544125E-6	-77.454519
1.54417E-6	-80.572481
1.544215E-6	-81.858856
1.54426E-6	-79.846402
1.544305E-6	-70.374886
1.54435E-6	-54.004444
1.544395E-6	-47.092978
1.54444E-6	-43.873221
1.544485E-6	-43.139897
1.54453E-6	-42.999023
1.544575E-6	-43.005092
1.54462E-6	-42.974833
1.544665E-6	-43.127387
1.54471E-6	-44.543219
1.544755E-6	-48.591778
1.5448E-6	-56.952941
1.544845E-6	-65.873715
1.54489E-6	-73.673403
1.544935E-6	-79.172146
1.54498E-6	-81.2056
1.545025E-6	-81.689625
1.54507E-6	-76.560009
1.545115E-6	-63.592205
1.54516E-6	-51.238977
1.545205E-6	-45.269512
1.54525E-6	-43.3762
1.545295E-6	-42.981731
1.54534E-6	-42.875187
1.545385E-6	-42.846653
1.54543E-6	-42.865935
1.545475E-6	-43.290124
1.54552E-6	-45.334289
1.545565E-6	-50.077116
1.54561E-6	-59.897
1.545655E-6	-68.167302
1.5457E-6	-75.025175
1.545745E-6	-79.310724
1.54579E-6	-81.795358
1.545835E-6	-80.015663
1.54588E-6	-74.55932
1.545925E-6	-59.442395
1.54597E-6	-48.951716
1.546015E-6	-44.424928
1.54606E-6	-43.174037
1.546105E-6	-42.973972
1.54615E-6	-42.937945
1.546195E-6	-42.914092
1.54624E-6	-42.952491
1.546285E-6	-43.640139
1.54633E-6	-46.42637
1.546375E-6	-52.491832
1.54642E-6	-61.306509
1.546465E-6	-70.008259
1.54651E-6	-77.249191
1.546555E-6	-80.14933
1.5466E-6	-81.213633
1.546645E-6	-79.825493
1.54669E-6	-71.996266
1.546735E-6	-55.586191
1.54678E-6	-47.68021
1.546825E-6	-44.035129
1.54687E-6	-43.115802
1.546915E-6	-42.971388
1.54696E-6	-42.920043
1.547005E-6	-42.891214
1.54705E-6	-43.019865
1.547095E-6	-44.284076
1.54714E-6	-47.947956
1.547185E-6	-55.282683
1.54723E-6	-64.396151
1.547275E-6	-72.491061
1.54732E-6	-78.187282
1.547365E-6	-80.466269
1.54741E-6	-81.161115
1.547455E-6	-78.356471
1.5475E-6	-66.29117
1.547545E-6	-52.432118
1.54759E-6	-46.341378
1.547635E-6	-43.617105
1.54768E-6	-43.122036
1.547725E-6	-43.031196
1.54777E-6	-43.012907
1.547815E-6	-43.00249
1.54786E-6	-43.25874
1.547905E-6	-44.841262
1.54795E-6	-49.255493
1.547995E-6	-58.071539
1.54804E-6	-66.728455
1.548085E-6	-73.749964
1.54813E-6	-79.143527
1.548175E-6	-81.002889
1.54822E-6	-81.205027
1.548265E-6	-75.963648
1.54831E-6	-61.825669
1.548355E-6	-50.093948
1.5484E-6	-44.9026
1.548445E-6	-43.295686
1.54849E-6	-42.957637
1.548535E-6	-42.876029
1.54858E-6	-42.857541
1.548625E-6	-42.881928
1.54867E-6	-43.357342
1.548715E-6	-45.58462
1.54876E-6	-50.605806
1.548805E-6	-60.950682
1.54885E-6	-69.229957
1.548895E-6	-75.924392
1.54894E-6	-79.93534
1.548985E-6	-81.483137
1.54903E-6	-81.204454
1.549075E-6	-74.125135
1.54912E-6	-59.179331
1.549165E-6	-49.132843
1.54921E-6	-44.459957
1.549255E-6	-43.188493
1.5493E-6	-42.921744
1.549345E-6	-42.877713
1.54939E-6	-42.876029
1.549435E-6	-42.954206
1.54948E-6	-43.64818
1.549525E-6	-46.328305
1.54957E-6	-51.970211
1.549615E-6	-62.63046
1.54966E-6	-69.336741
1.549705E-6	-76.518899
1.54975E-6	-80.199512
1.549795E-6	-81.385253
1.54984E-6	-80.160581
1.549885E-6	-72.524328
1.54993E-6	-55.980827
1.549975E-6	-47.71343
1.55002E-6	-43.971807
1.550065E-6	-43.05044
1.55011E-6	-42.866775
1.550155E-6	-42.829956
1.5502E-6	-42.841637
1.550245E-6	-42.917491
1.55029E-6	-43.784083
1.550335E-6	-46.857113
1.55038E-6	-53.417023
1.550425E-6	-62.498775
1.55047E-6	-70.86451
1.550515E-6	-77.692957
1.55056E-6	-79.825493
1.550605E-6	-81.669167
1.55065E-6	-79.527251
1.550695E-6	-70.024389
1.55074E-6	-53.839448
1.550785E-6	-46.920763
1.55083E-6	-43.755116
1.550875E-6	-43.038184
1.55092E-6	-42.874345
1.550965E-6	-42.877713
1.55101E-6	-42.917491
1.551055E-6	-43.004224
1.5511E-6	-44.244658
1.551145E-6	-48.013429
1.55119E-6	-55.647929
1.551235E-6	-64.719837
1.55128E-6	-72.589272
1.551325E-6	-78.294449
1.55137E-6	-80.719115
1.551415E-6	-81.652615
1.55146E-6	-78.431481
1.551505E-6	-66.453154
1.55155E-6	-52.387489
1.551595E-6	-46.390281
1.55164E-6	-43.668346
1.551685E-6	-43.150649
1.55173E-6	-43.028579
1.551775E-6	-42.999023
1.55182E-6	-43.004224
1.551865E-6	-43.208448
1.55191E-6	-44.825402
1.551955E-6	-49.193735
1.552E-6	-57.775437
1.552045E-6	-66.239708
1.55209E-6	-74.104972
1.552135E-6	-79.072794
1.55218E-6	-80.172766
1.552225E-6	-81.404414
1.55227E-6	-76.912222
1.552315E-6	-64.436975
1.55236E-6	-51.429088
1.552405E-6	-45.446982
1.55245E-6	-43.540867
1.552495E-6	-43.097153
1.55254E-6	-43.003357
1.552585E-6	-42.97828
1.55263E-6	-42.974833
1.552675E-6	-43.275327
1.55272E-6	-45.137112
1.552765E-6	-49.621752
1.55281E-6	-58.985966
1.552855E-6	-67.604503
1.5529E-6	-74.522253
1.552945E-6	-79.079815
1.55299E-6	-81.755487
1.553035E-6	-80.503173
1.55308E-6	-75.234582
1.553125E-6	-61.255762
1.55317E-6	-49.931063
1.553215E-6	-44.769042
1.55326E-6	-43.290124
1.553305E-6	-42.979143
1.55335E-6	-42.921744
1.553395E-6	-42.901367
1.55344E-6	-42.868456
1.553485E-6	-43.327339
1.55353E-6	-45.570501
1.553575E-6	-50.401957
1.55362E-6	-60.422012
1.553665E-6	-68.45576
1.55371E-6	-74.970269
1.553755E-6	-79.30702
1.5538E-6	-81.586405
1.553845E-6	-80.441199
1.55389E-6	-74.754741
1.553935E-6	-59.527251
1.55398E-6	-49.182927
1.554025E-6	-44.677554
1.55407E-6	-43.377145
1.554115E-6	-43.089185
1.55416E-6	-43.017254
1.554205E-6	-42.974833
1.55425E-6	-42.987775
1.554295E-6	-43.542831
1.55434E-6	-45.989443
1.554385E-6	-51.228015
1.55443E-6	-61.820382
1.554475E-6	-68.999743
1.55452E-6	-76.015392
1.554565E-6	-79.484616
1.55461E-6	-80.598323
1.554655E-6	-79.400581
1.5547E-6	-73.560541
1.554745E-6	-58.33866
1.55479E-6	-48.598063
1.554835E-6	-44.424928
1.55488E-6	-43.386607
1.554925E-6	-43.085648
1.55497E-6	-43.017254
1.555015E-6	-43.032069
1.55506E-6	-43.073293
1.555105E-6	-43.678465
1.55515E-6	-46.250684
1.555195E-6	-51.915864
1.55524E-6	-60.433034
1.555285E-6	-69.617774
1.55533E-6	-76.703988
1.555375E-6	-79.842212
1.55542E-6	-81.457547
1.555465E-6	-80.047598
1.55551E-6	-72.357491
1.555555E-6	-56.152883
1.5556E-6	-48.032713
1.555645E-6	-44.272445
1.55569E-6	-43.287346
1.555735E-6	-43.051317
1.55578E-6	-43.025963
1.555825E-6	-42.963648
1.55587E-6	-43.021606
1.555915E-6	-43.667336
1.55596E-6	-46.356366
1.556005E-6	-52.270185
1.55605E-6	-60.909256
1.556095E-6	-69.875846
1.55614E-6	-76.899443
1.556185E-6	-79.995659
1.55623E-6	-82.228633
1.556275E-6	-79.93962
1.55632E-6	-71.891628
1.556365E-6	-55.545515
1.55641E-6	-47.75726
1.556455E-6	-44.061603
1.5565E-6	-43.181259
1.556545E-6	-43.001623
1.55659E-6	-42.957637
1.556635E-6	-42.939653
1.55668E-6	-43.05044
1.556725E-6	-43.84892
1.55677E-6	-46.661499
1.556815E-6	-52.919192
1.55686E-6	-61.744441
1.556905E-6	-70.364483
1.55695E-6	-77.300203
1.556995E-6	-79.702105
1.55704E-6	-81.163386
1.557085E-6	-79.75925
1.55713E-6	-71.615917
1.557175E-6	-55.509847
1.55722E-6	-47.609509
1.557265E-6	-43.977229
1.55731E-6	-43.060094
1.557355E-6	-42.883615
1.5574E-6	-42.844981
1.557445E-6	-42.876871
1.55749E-6	-42.949064
1.557535E-6	-43.789276
1.55758E-6	-46.882461
1.557625E-6	-53.486251
1.55767E-6	-62.248266
1.557715E-6	-70.839147
1.55776E-6	-77.602002
1.557805E-6	-80.101054
1.55785E-6	-81.341265
1.557895E-6	-79.681877
1.55794E-6	-71.291281
1.557985E-6	-54.851867
1.55803E-6	-47.440043
1.558075E-6	-43.955579
1.55812E-6	-43.060973
1.558165E-6	-42.854188
1.55821E-6	-42.862575
1.558255E-6	-42.882771
1.5583E-6	-42.959353
1.558345E-6	-43.811155
1.55839E-6	-46.781945
1.558435E-6	-53.176744
1.55848E-6	-61.949071
1.558525E-6	-70.693056
1.55857E-6	-77.095202
1.558615E-6	-80.796679
1.55866E-6	-81.962698
1.558705E-6	-79.75104
1.55875E-6	-71.565181
1.558795E-6	-55.421181
1.55884E-6	-47.602002
1.558885E-6	-43.884891
1.55893E-6	-43.014645
1.558975E-6	-42.885302
1.55902E-6	-42.874345
1.559065E-6	-42.908997
1.55911E-6	-43.011169
1.559155E-6	-43.84892
1.5592E-6	-46.888822
1.559245E-6	-53.304042
1.55929E-6	-61.999706
1.559335E-6	-70.802945
1.55938E-6	-77.772835
1.559425E-6	-80.576942
1.55947E-6	-80.776898
1.559515E-6	-80.042771
1.55956E-6	-71.922621
1.559605E-6	-55.479068
1.55965E-6	-47.627077
1.559695E-6	-43.867926
1.55974E-6	-42.960212
1.559785E-6	-42.841637
1.55983E-6	-42.880241
1.559875E-6	-42.92515
1.55992E-6	-43.047811
1.559965E-6	-43.922234
1.56001E-6	-47.055338
1.560055E-6	-53.785121
1.5601E-6	-62.559418
1.560145E-6	-70.937727
1.56019E-6	-77.56962
1.560235E-6	-80.98106
1.56028E-6	-81.364392
1.560325E-6	-80.214087
1.56037E-6	-71.918566
1.560415E-6	-55.58462
1.56046E-6	-47.685304
1.560505E-6	-43.965308
1.56055E-6	-43.068889
1.560595E-6	-42.973972
1.56064E-6	-43.018995
1.560685E-6	-43.031196
1.56073E-6	-43.154239
1.560775E-6	-44.000078
1.56082E-6	-46.961562
1.560865E-6	-53.236723
1.56091E-6	-62.305488
1.560955E-6	-70.839147
1.561E-6	-78.227522
1.561045E-6	-81.264469
1.56109E-6	-81.850868
1.561135E-6	-79.677843
1.56118E-6	-72.889524
1.561225E-6	-56.544302
1.56127E-6	-47.883456
1.561315E-6	-43.92545
1.56136E-6	-43.001623
1.561405E-6	-42.861736
1.56145E-6	-42.888679
1.561495E-6	-42.961929
1.56154E-6	-43.05044
1.561585E-6	-43.792395
1.56163E-6	-46.607474
1.561675E-6	-52.749055
1.56172E-6	-61.45087
1.561765E-6	-70.270108
1.56181E-6	-77.279262
1.561855E-6	-79.863203
1.5619E-6	-81.255182
1.561945E-6	-80.456127
1.56199E-6	-73.736596
1.562035E-6	-58.480176
1.56208E-6	-48.471004
1.562125E-6	-44.125135
1.56217E-6	-43.0103
1.562215E-6	-42.876029
1.56226E-6	-42.884458
1.562305E-6	-42.941363
1.56235E-6	-43.049563
1.562395E-6	-43.674415
1.56244E-6	-46.178028
1.562485E-6	-51.531065
1.56253E-6	-62.251912
1.562575E-6	-68.944898
1.56262E-6	-76.304131
1.562665E-6	-79.812995
1.56271E-6	-82.258481
1.562755E-6	-80.73709
1.5628E-6	-74.736607
1.562845E-6	-59.922522
1.56289E-6	-48.850556
1.562935E-6	-44.278257
1.56298E-6	-42.967946
1.563025E-6	-42.76955
1.56307E-6	-42.810004
1.563115E-6	-42.877713
1.56316E-6	-43.0103
1.563205E-6	-43.532043
1.56325E-6	-45.816987
1.563295E-6	-51.009459
1.56334E-6	-61.481304
1.563385E-6	-69.3968
1.56343E-6	-75.929492
