Wavelength (nm)	Power (dBm)
1.525E-6	-50.215456
1.525045E-6	-50.098388
1.52509E-6	-50.240171
1.525135E-6	-50.847057
1.52518E-6	-51.557714
1.525225E-6	-51.848873
1.52527E-6	-51.8303
1.525315E-6	-51.761998
1.52536E-6	-51.685782
1.525405E-6	-51.590162
1.52545E-6	-51.337718
1.525495E-6	-50.428718
1.52554E-6	-49.172146
1.525585E-6	-48.368386
1.52563E-6	-48.043771
1.525675E-6	-47.843624
1.52572E-6	-47.629592
1.525765E-6	-47.416022
1.52581E-6	-47.269987
1.525855E-6	-47.418418
1.5259E-6	-48.256494
1.525945E-6	-49.590023
1.52599E-6	-50.390063
1.526035E-6	-50.541869
1.52608E-6	-50.511471
1.526125E-6	-50.439277
1.52617E-6	-50.364955
1.526215E-6	-50.131387
1.52626E-6	-48.985966
1.526305E-6	-47.242281
1.52635E-6	-45.929492
1.526395E-6	-45.525319
1.52644E-6	-45.298836
1.526485E-6	-45.144205
1.52653E-6	-44.999008
1.526575E-6	-44.93901
1.52662E-6	-45.055671
1.526665E-6	-45.980827
1.52671E-6	-47.734001
1.526755E-6	-49.129288
1.5268E-6	-49.442395
1.526845E-6	-49.442395
1.52689E-6	-49.385475
1.526935E-6	-49.314431
1.52698E-6	-49.090369
1.527025E-6	-47.695511
1.52707E-6	-45.442418
1.527115E-6	-43.930815
1.52716E-6	-43.277174
1.527205E-6	-43.085648
1.52725E-6	-42.94564
1.527295E-6	-42.875187
1.52734E-6	-42.735173
1.527385E-6	-42.79262
1.52743E-6	-43.651199
1.527475E-6	-45.609833
1.52752E-6	-47.726276
1.527565E-6	-48.548036
1.52761E-6	-48.667805
1.527655E-6	-48.629625
1.5277E-6	-48.582368
1.527745E-6	-48.461851
1.52779E-6	-47.318903
1.527835E-6	-44.672456
1.52788E-6	-42.577463
1.527925E-6	-41.707606
1.52797E-6	-41.520574
1.528015E-6	-41.42125
1.52806E-6	-41.309444
1.528105E-6	-41.268538
1.52815E-6	-41.29362
1.528195E-6	-41.915189
1.52824E-6	-43.680492
1.528285E-6	-46.35449
1.52833E-6	-47.891466
1.528375E-6	-48.210231
1.52842E-6	-48.16161
1.528465E-6	-47.999707
1.52851E-6	-47.090754
1.528555E-6	-41.82633
1.5286E-6	-28.810742
1.528645E-6	-21.118205
1.52869E-6	-17.92635
1.528735E-6	-16.88458
1.52878E-6	-16.585655
1.528825E-6	-16.466609
1.52887E-6	-16.377061
1.528915E-6	-16.455074
1.52896E-6	-17.825161
1.529005E-6	-21.771784
1.52905E-6	-30.095723
1.529095E-6	-39.867413
1.52914E-6	-45.628839
1.529185E-6	-47.481185
1.52923E-6	-47.846268
1.529275E-6	-47.50557
1.52932E-6	-45.287083
1.529365E-6	-33.036436
1.52941E-6	-22.906452
1.529455E-6	-18.71924
1.5295E-6	-17.090754
1.529545E-6	-16.673596
1.52959E-6	-16.597542
1.529635E-6	-16.478175
1.52968E-6	-16.491707
1.529725E-6	-17.263044
1.52977E-6	-20.214087
1.529815E-6	-26.994045
1.52986E-6	-37.464197
1.529905E-6	-44.354523
1.52995E-6	-47.176045
1.529995E-6	-47.856861
1.53004E-6	-47.775437
1.530085E-6	-46.556077
1.53013E-6	-38.680607
1.530175E-6	-25.287083
1.53022E-6	-19.897
1.530265E-6	-17.604503
1.53031E-6	-16.991872
1.530355E-6	-16.831912
1.5304E-6	-16.790233
1.530445E-6	-16.753061
1.53049E-6	-17.064165
1.530535E-6	-18.982529
1.53058E-6	-23.818473
1.530625E-6	-33.567448
1.53067E-6	-42.422245
1.530715E-6	-46.627405
1.53076E-6	-47.791078
1.530805E-6	-47.93714
1.53085E-6	-47.253804
1.530895E-6	-43.015515
1.53094E-6	-28.931295
1.530985E-6	-21.375704
1.53103E-6	-18.218867
1.531075E-6	-17.290884
1.53112E-6	-17.081873
1.531165E-6	-17.009287
1.53121E-6	-16.978856
1.531255E-6	-17.137681
1.5313E-6	-18.392314
1.531345E-6	-22.085199
1.53139E-6	-29.913998
1.531435E-6	-39.905491
1.53148E-6	-45.759355
1.531525E-6	-47.634627
1.53157E-6	-48.01893
1.531615E-6	-47.692957
1.53166E-6	-45.700863
1.531705E-6	-33.594192
1.53175E-6	-23.36959
1.531795E-6	-19.104481
1.53184E-6	-17.476325
1.531885E-6	-17.108572
1.53193E-6	-17.035542
1.531975E-6	-17.026773
1.53202E-6	-17.081873
1.532065E-6	-17.670039
1.53211E-6	-20.170055
1.532155E-6	-26.169031
1.5322E-6	-36.489771
1.532245E-6	-43.967473
1.53229E-6	-47.139929
1.532335E-6	-47.942545
1.53238E-6	-47.93444
1.532425E-6	-46.857113
1.53247E-6	-40.130492
1.532515E-6	-25.996347
1.53256E-6	-20.136762
1.532605E-6	-17.74174
1.53265E-6	-17.157949
1.532695E-6	-17.044329
1.53274E-6	-17.046529
1.532785E-6	-17.097427
1.53283E-6	-17.46662
1.532875E-6	-19.215432
1.53292E-6	-23.687592
1.532965E-6	-32.663213
1.53301E-6	-41.671081
1.533055E-6	-46.518899
1.5331E-6	-47.859513
1.533145E-6	-48.077114
1.53319E-6	-47.634627
1.533235E-6	-45.034855
1.53328E-6	-31.816421
1.533325E-6	-22.567255
1.53337E-6	-18.735439
1.533415E-6	-17.392133
1.53346E-6	-17.180581
1.533505E-6	-17.210179
1.53355E-6	-17.269987
1.533595E-6	-17.428016
1.53364E-6	-18.356471
1.533685E-6	-21.421852
1.53373E-6	-28.350526
1.533775E-6	-38.76475
1.53382E-6	-45.094797
1.533865E-6	-47.589518
1.53391E-6	-48.133261
1.533955E-6	-47.983298
1.534E-6	-46.639407
1.534045E-6	-38.523237
1.53409E-6	-25.087784
1.534135E-6	-19.714287
1.53418E-6	-17.549811
1.534225E-6	-17.070797
1.53427E-6	-17.037737
1.534315E-6	-17.128704
1.53436E-6	-17.251497
1.534405E-6	-17.675121
1.53445E-6	-19.649707
1.534495E-6	-24.348608
1.53454E-6	-34.042834
1.534585E-6	-42.63046
1.53463E-6	-46.873996
1.534675E-6	-48.065971
1.53472E-6	-48.210231
1.534765E-6	-47.602002
1.53481E-6	-44.111683
1.534855E-6	-30.170055
1.5349E-6	-21.644362
1.534945E-6	-18.239087
1.53499E-6	-17.207895
1.535035E-6	-17.075224
1.53508E-6	-17.126462
1.535125E-6	-17.244583
1.53517E-6	-17.490923
1.535215E-6	-18.680607
1.53526E-6	-22.173841
1.535305E-6	-29.566377
1.53535E-6	-39.609827
1.535395E-6	-45.848596
1.53544E-6	-47.862167
1.535485E-6	-48.306195
1.53553E-6	-48.079904
1.535575E-6	-46.520848
1.53562E-6	-36.8867
1.535665E-6	-24.691602
1.53571E-6	-19.434763
1.535755E-6	-17.307206
1.5358E-6	-16.907958
1.535845E-6	-16.931463
1.53589E-6	-17.004927
1.535935E-6	-17.101882
1.53598E-6	-17.634627
1.536025E-6	-19.779843
1.53607E-6	-25.120137
1.536115E-6	-35.161275
1.53616E-6	-43.443814
1.536205E-6	-47.189666
1.53625E-6	-48.22175
1.536295E-6	-48.317973
1.53634E-6	-47.602002
1.536385E-6	-43.810111
1.53643E-6	-29.590023
1.536475E-6	-21.37809
1.53652E-6	-17.988761
1.536565E-6	-16.933606
1.53661E-6	-16.852903
1.536655E-6	-16.888822
1.5367E-6	-16.916491
1.536745E-6	-17.099654
1.53679E-6	-18.268137
1.536835E-6	-21.763954
1.53688E-6	-29.746941
1.536925E-6	-39.542859
1.53697E-6	-45.76918
1.537015E-6	-47.883456
1.53706E-6	-48.33866
1.537105E-6	-48.127614
1.53715E-6	-46.617428
1.537195E-6	-37.037737
1.53724E-6	-24.565528
1.537285E-6	-19.366666
1.53733E-6	-17.256112
1.537375E-6	-16.811023
1.53742E-6	-16.761294
1.537465E-6	-16.78816
1.53751E-6	-16.834007
1.537555E-6	-17.276942
1.5376E-6	-19.408154
1.537645E-6	-24.671183
1.53769E-6	-34.76774
1.537735E-6	-43.014645
1.53778E-6	-47.009287
1.537825E-6	-48.164455
1.53787E-6	-48.309136
1.537915E-6	-47.685304
1.53796E-6	-44.435769
1.538005E-6	-30.462886
1.53805E-6	-21.631697
1.538095E-6	-17.975117
1.53814E-6	-16.781945
1.538185E-6	-16.577748
1.53823E-6	-16.556077
1.538275E-6	-16.542343
1.53832E-6	-16.641411
1.538365E-6	-17.644716
1.53841E-6	-20.924274
1.538455E-6	-28.410347
1.5385E-6	-38.931295
1.538545E-6	-45.189876
1.53859E-6	-47.672579
1.538635E-6	-48.265224
1.53868E-6	-48.133261
1.538725E-6	-46.815193
1.53877E-6	-39.051796
1.538815E-6	-25.379016
1.53886E-6	-19.706162
1.538905E-6	-17.396901
1.53895E-6	-16.819367
1.538995E-6	-16.716204
1.53904E-6	-16.68168
1.539085E-6	-16.667543
1.53913E-6	-16.991872
1.539175E-6	-18.884015
1.53922E-6	-23.685562
1.539265E-6	-33.308692
1.53931E-6	-42.162393
1.539355E-6	-46.728455
1.5394E-6	-48.038238
1.539445E-6	-48.250684
1.53949E-6	-47.721133
1.539535E-6	-45.032087
1.53958E-6	-31.432107
1.539625E-6	-22.188912
1.53967E-6	-18.422411
1.539715E-6	-17.081873
1.53976E-6	-16.784016
1.539805E-6	-16.732546
1.53985E-6	-16.693833
1.539895E-6	-16.7305
1.53994E-6	-17.559704
1.539985E-6	-20.558135
1.54003E-6	-27.695511
1.540075E-6	-38.37137
1.54012E-6	-44.799097
1.540165E-6	-47.481185
1.54021E-6	-48.153086
1.540255E-6	-48.093882
1.5403E-6	-47.042131
1.540345E-6	-40.474013
1.54039E-6	-26.333903
1.540435E-6	-20.172314
1.54048E-6	-17.587026
1.540525E-6	-16.834007
1.54057E-6	-16.66956
1.540615E-6	-16.631402
1.54066E-6	-16.595559
1.540705E-6	-16.819367
1.54075E-6	-18.416375
1.540795E-6	-22.71565
1.54084E-6	-31.69668
1.540885E-6	-41.089646
1.54093E-6	-46.225116
1.540975E-6	-47.856861
1.54102E-6	-48.144578
1.541065E-6	-47.838341
1.54111E-6	-45.845258
1.541155E-6	-34.071573
1.5412E-6	-23.462088
1.541245E-6	-18.982529
1.54129E-6	-17.279262
1.541335E-6	-16.863437
1.54138E-6	-16.773673
1.541425E-6	-16.742791
1.54147E-6	-16.720284
1.541515E-6	-17.33298
1.54156E-6	-19.892761
1.541605E-6	-25.953373
1.54165E-6	-36.245193
1.541695E-6	-43.694704
1.54174E-6	-47.113037
1.541785E-6	-47.991495
1.54183E-6	-48.021683
1.541875E-6	-47.256112
1.54192E-6	-42.959353
1.541965E-6	-28.620133
1.54201E-6	-20.907115
1.542055E-6	-17.880789
1.5421E-6	-16.91009
1.542145E-6	-16.728455
1.54219E-6	-16.673596
1.542235E-6	-16.625407
1.54228E-6	-16.742791
1.542325E-6	-17.888795
1.54237E-6	-21.344223
1.542415E-6	-29.229957
1.54246E-6	-39.637705
1.542505E-6	-45.279753
1.54255E-6	-47.500682
1.542595E-6	-47.988761
1.54264E-6	-47.835702
1.542685E-6	-46.455074
1.54273E-6	-38.323873
1.542775E-6	-25.139948
1.54282E-6	-19.767475
1.542865E-6	-17.604503
1.54291E-6	-17.061956
1.542955E-6	-16.931463
1.543E-6	-16.895191
1.543045E-6	-16.888822
1.54309E-6	-17.164726
1.543135E-6	-18.90759
1.54318E-6	-23.494982
1.543225E-6	-32.980005
1.54327E-6	-41.828976
1.543315E-6	-46.413039
1.54336E-6	-47.75208
1.543405E-6	-47.956087
1.54345E-6	-47.527635
1.543495E-6	-44.975729
1.54354E-6	-32.09363
1.543585E-6	-22.605859
1.54363E-6	-18.610661
1.543675E-6	-17.196493
1.54372E-6	-16.903698
1.543765E-6	-16.838199
1.54381E-6	-16.815193
1.543855E-6	-16.863437
1.5439E-6	-17.503126
1.543945E-6	-20.062112
1.54399E-6	-26.441655
1.544035E-6	-36.806857
1.54408E-6	-43.860525
1.544125E-6	-47.064165
1.54417E-6	-47.838341
1.544215E-6	-47.878124
1.54426E-6	-47.084092
1.544305E-6	-42.492602
1.54435E-6	-28.306195
1.544395E-6	-20.965302
1.54444E-6	-18.052082
1.544485E-6	-17.191941
1.54453E-6	-17.028963
1.544575E-6	-16.996219
1.54462E-6	-16.965879
1.544665E-6	-17.064165
1.54471E-6	-18.184422
1.544755E-6	-21.656429
1.5448E-6	-29.730584
1.544845E-6	-39.562449
1.54489E-6	-45.539291
1.544935E-6	-47.449688
1.54498E-6	-47.9129
1.545025E-6	-47.718564
1.54507E-6	-46.29672
1.545115E-6	-36.581699
1.54516E-6	-24.667365
1.545205E-6	-19.531148
1.54525E-6	-17.430418
1.545295E-6	-16.93575
1.54534E-6	-16.85922
1.545385E-6	-16.819367
1.54543E-6	-16.821455
1.545475E-6	-17.155693
1.54552E-6	-18.975663
1.545565E-6	-23.686577
1.54561E-6	-33.032942
1.545655E-6	-41.879561
1.5457E-6	-46.377061
1.545745E-6	-47.695511
1.54579E-6	-47.9129
1.545835E-6	-47.537477
1.54588E-6	-45.334289
1.545925E-6	-33.142583
1.54597E-6	-22.822463
1.546015E-6	-18.712777
1.54606E-6	-17.274622
1.546105E-6	-16.968039
1.54615E-6	-16.918626
1.546195E-6	-16.899443
1.54624E-6	-16.931463
1.546285E-6	-17.464197
1.54633E-6	-19.846402
1.546375E-6	-25.717032
1.54642E-6	-35.949953
1.546465E-6	-43.569423
1.54651E-6	-46.933606
1.546555E-6	-47.81202
1.5466E-6	-47.883456
1.546645E-6	-47.23768
1.54669E-6	-43.182162
1.546735E-6	-29.19013
1.54678E-6	-21.330632
1.546825E-6	-18.167302
1.54687E-6	-17.142177
1.546915E-6	-16.987529
1.54696E-6	-16.92718
1.547005E-6	-16.912222
1.54705E-6	-17.018021
1.547095E-6	-17.994231
1.54714E-6	-21.153179
1.547185E-6	-28.213108
1.54723E-6	-38.632794
1.547275E-6	-44.866492
1.54732E-6	-47.302536
1.547365E-6	-47.888795
1.54741E-6	-47.806775
1.547455E-6	-46.784016
1.5475E-6	-40.426801
1.547545E-6	-26.443569
1.54759E-6	-20.307239
1.547635E-6	-17.749493
1.54768E-6	-17.099654
1.547725E-6	-16.983191
1.54777E-6	-16.955095
1.547815E-6	-16.96372
1.54786E-6	-17.142177
1.547905E-6	-18.495506
1.54795E-6	-22.400301
1.547995E-6	-30.82442
1.54804E-6	-40.34281
1.548085E-6	-45.788899
1.54813E-6	-47.572102
1.548175E-6	-47.920965
1.54822E-6	-47.677665
1.548265E-6	-46.126102
1.54831E-6	-35.625666
1.548355E-6	-24.42132
1.5484E-6	-19.465374
1.548445E-6	-17.537477
1.54849E-6	-17.031155
1.548535E-6	-16.944337
1.54858E-6	-16.933606
1.548625E-6	-16.952941
1.54867E-6	-17.288557
1.548715E-6	-19.197344
1.54876E-6	-24.017568
1.548805E-6	-33.43327
1.54885E-6	-42.101374
1.548895E-6	-46.485902
1.54894E-6	-47.710866
1.548985E-6	-47.899492
1.54903E-6	-47.515363
1.549075E-6	-45.185574
1.54912E-6	-33.270713
1.549165E-6	-23.149752
1.54921E-6	-18.897471
1.549255E-6	-17.328283
1.5493E-6	-17.007107
1.549345E-6	-16.961562
1.54939E-6	-16.961562
1.549435E-6	-17.002748
1.54948E-6	-17.544873
1.549525E-6	-19.875846
1.54957E-6	-25.480601
1.549615E-6	-35.533075
1.54966E-6	-43.329208
1.549705E-6	-46.850799
1.54975E-6	-47.770236
1.549795E-6	-47.843624
1.54984E-6	-47.249191
1.549885E-6	-43.949105
1.54993E-6	-30.260413
1.549975E-6	-21.845551
1.55002E-6	-18.380334
1.550065E-6	-17.276942
1.55011E-6	-17.079656
1.550155E-6	-17.044329
1.5502E-6	-17.039933
1.550245E-6	-17.068585
1.55029E-6	-17.718564
1.550335E-6	-20.334359
1.55038E-6	-26.790233
1.550425E-6	-37.413627
1.55047E-6	-44.175957
1.550515E-6	-47.070797
1.55056E-6	-47.780644
1.550605E-6	-47.775437
1.55065E-6	-46.952941
1.550695E-6	-42.106308
1.55074E-6	-27.698066
1.550785E-6	-20.918905
1.55083E-6	-18.068754
1.550875E-6	-17.217038
1.55092E-6	-17.061956
1.550965E-6	-17.033348
1.55101E-6	-17.007107
1.551055E-6	-17.081873
1.5511E-6	-18.065971
1.551145E-6	-21.29362
1.55119E-6	-28.680607
1.551235E-6	-39.100949
1.55128E-6	-44.983931
1.551325E-6	-47.265357
1.55137E-6	-47.78325
1.551415E-6	-47.700623
1.55146E-6	-46.746896
1.551505E-6	-40.663103
1.55155E-6	-26.751005
1.551595E-6	-20.505612
1.55164E-6	-17.93714
1.551685E-6	-17.212464
1.55173E-6	-17.070797
1.551775E-6	-17.055338
1.55182E-6	-17.022395
1.551865E-6	-17.166988
1.55191E-6	-18.443604
1.551955E-6	-22.143855
1.552E-6	-30.049794
1.552045E-6	-39.706162
1.55209E-6	-45.492891
1.552135E-6	-47.382615
1.55218E-6	-47.759852
1.552225E-6	-47.589518
1.55227E-6	-46.225116
1.552315E-6	-37.10634
1.55236E-6	-24.955291
1.552405E-6	-19.718356
1.55245E-6	-17.594508
1.552495E-6	-17.121983
1.55254E-6	-17.053134
1.552585E-6	-17.018021
1.55263E-6	-17.002748
1.552675E-6	-17.251497
1.55272E-6	-18.860566
1.552765E-6	-23.196645
1.55281E-6	-31.897003
1.552855E-6	-41.210763
1.5529E-6	-46.062494
1.552945E-6	-47.459355
1.55299E-6	-47.723704
1.553035E-6	-47.461776
1.55308E-6	-45.73001
1.553125E-6	-35.00863
1.55317E-6	-23.815335
1.553215E-6	-19.208188
1.55326E-6	-17.423214
1.553305E-6	-17.020208
1.55335E-6	-16.940041
1.553395E-6	-16.888822
1.55344E-6	-16.893067
1.553485E-6	-17.246886
1.55353E-6	-19.139963
1.553575E-6	-23.84576
1.55362E-6	-33.091839
1.553665E-6	-41.801272
1.55371E-6	-46.17983
1.553755E-6	-47.486051
1.5538E-6	-47.698066
1.553845E-6	-47.356545
1.55389E-6	-45.234582
1.553935E-6	-33.274404
1.55398E-6	-23.171332
1.554025E-6	-19.037854
1.55407E-6	-17.488487
1.554115E-6	-17.115272
1.55416E-6	-17.042131
1.554205E-6	-16.996219
1.55425E-6	-17.004927
1.554295E-6	-17.406451
1.55434E-6	-19.442395
1.554385E-6	-24.489161
1.55443E-6	-34.340342
1.554475E-6	-42.58297
1.55452E-6	-46.458916
1.554565E-6	-47.522722
1.55461E-6	-47.6675
1.554655E-6	-47.21475
1.5547E-6	-44.66991
1.554745E-6	-31.813123
1.55479E-6	-22.564902
1.554835E-6	-18.804142
1.55488E-6	-17.440043
1.554925E-6	-17.128704
1.55497E-6	-17.064165
1.555015E-6	-17.046529
1.55506E-6	-17.064165
1.555105E-6	-17.512913
1.55515E-6	-19.698052
1.555195E-6	-25.22011
1.55524E-6	-35.309147
1.555285E-6	-43.190303
1.55533E-6	-46.579723
1.555375E-6	-47.535014
1.55542E-6	-47.62205
1.555465E-6	-47.07301
1.55551E-6	-43.877461
1.555555E-6	-30.378675
1.5556E-6	-21.919917
1.555645E-6	-18.507809
1.55569E-6	-17.361273
1.555735E-6	-17.113037
1.55578E-6	-17.039933
1.555825E-6	-17.035542
1.55587E-6	-17.066374
1.555915E-6	-17.544873
1.55596E-6	-19.867413
1.556005E-6	-25.777385
1.55605E-6	-35.961934
1.556095E-6	-43.385659
1.55614E-6	-46.685727
1.556185E-6	-47.532553
1.55623E-6	-47.589518
1.556275E-6	-47.024583
1.55632E-6	-43.719177
1.556365E-6	-30.12155
1.55641E-6	-21.962698
1.556455E-6	-18.452718
1.5565E-6	-17.279262
1.556545E-6	-17.039933
1.55659E-6	-16.987529
1.556635E-6	-16.994045
1.55668E-6	-17.046529
1.556725E-6	-17.657359
1.55677E-6	-20.207704
1.556815E-6	-26.274562
1.55686E-6	-36.589614
1.556905E-6	-43.718155
1.55695E-6	-46.759234
1.556995E-6	-47.530093
1.55704E-6	-47.577071
1.557085E-6	-47.011469
1.55713E-6	-43.486251
1.557175E-6	-30.069166
1.55722E-6	-21.703746
1.557265E-6	-18.365404
1.55731E-6	-17.263044
1.557355E-6	-17.044329
1.5574E-6	-16.9897
1.557445E-6	-16.983191
1.55749E-6	-17.048729
1.557535E-6	-17.728849
1.55758E-6	-20.37536
1.557625E-6	-26.706021
1.55767E-6	-36.931463
1.557715E-6	-43.960982
1.55776E-6	-46.819367
1.557805E-6	-47.549811
1.55785E-6	-47.577071
1.557895E-6	-46.957249
1.55794E-6	-43.304042
1.557985E-6	-29.718356
1.55803E-6	-21.617178
1.558075E-6	-18.253588
1.55812E-6	-17.092978
1.558165E-6	-16.882461
1.55821E-6	-16.846595
1.558255E-6	-16.876111
1.5583E-6	-16.933606
1.558345E-6	-17.649768
1.55839E-6	-20.383417
1.558435E-6	-26.831912
1.55848E-6	-37.151183
1.558525E-6	-43.935111
1.55857E-6	-46.882461
1.558615E-6	-47.584535
1.55866E-6	-47.629592
1.558705E-6	-47.013652
1.55875E-6	-43.178549
1.558795E-6	-29.617774
1.55884E-6	-21.627905
1.558885E-6	-18.268137
1.55893E-6	-17.153437
1.558975E-6	-16.965879
1.55902E-6	-16.96372
1.559065E-6	-16.983191
1.55911E-6	-17.059749
1.559155E-6	-17.759852
1.5592E-6	-20.399099
1.559245E-6	-26.627405
1.55929E-6	-36.871882
1.559335E-6	-43.997897
1.55938E-6	-46.940041
1.559425E-6	-47.654827
1.55947E-6	-47.692957
1.559515E-6	-47.050931
1.55956E-6	-43.255063
1.559605E-6	-29.321855
1.55965E-6	-21.432107
1.559695E-6	-18.239087
1.55974E-6	-17.221617
1.559785E-6	-17.07301
1.55983E-6	-17.084092
1.559875E-6	-17.121983
1.55992E-6	-17.217038
1.559965E-6	-17.947956
1.56001E-6	-20.572481
1.560055E-6	-26.91009
1.5601E-6	-37.20105
1.560145E-6	-44.282912
1.56019E-6	-47.011469
1.560235E-6	-47.749493
1.56028E-6	-47.81202
1.560325E-6	-47.230789
1.56037E-6	-43.842603
1.560415E-6	-30.209527
1.56046E-6	-21.765258
1.560505E-6	-18.239087
1.56055E-6	-17.10634
1.560595E-6	-16.92504
1.56064E-6	-16.92932
1.560685E-6	-16.983191
1.56073E-6	-17.081873
1.560775E-6	-17.759852
1.56082E-6	-20.473528
1.560865E-6	-26.765416
1.56091E-6	-37.157949
1.560955E-6	-44.100504
1.561E-6	-47.081873
1.561045E-6	-47.859513
1.56109E-6	-47.92635
1.561135E-6	-47.330631
1.56118E-6	-44.047243
1.561225E-6	-30.253041
1.56127E-6	-21.71018
1.561315E-6	-18.22175
1.56136E-6	-17.097427
1.561405E-6	-16.905828
1.56145E-6	-16.922901
1.561495E-6	-16.985359
1.56154E-6	-17.084092
1.561585E-6	-17.692957
1.56163E-6	-20.165541
1.561675E-6	-26.219657
1.56172E-6	-36.322715
1.561765E-6	-43.80385
1.56181E-6	-47.07301
1.561855E-6	-47.956087
1.5619E-6	-48.052082
1.561945E-6	-47.594508
1.56199E-6	-44.964817
1.562035E-6	-31.958606
1.56208E-6	-22.410881
1.562125E-6	-18.477117
1.56217E-6	-17.081873
1.562215E-6	-16.863437
1.56226E-6	-16.873996
1.562305E-6	-16.946486
1.56235E-6	-17.046529
1.562395E-6	-17.50557
1.56244E-6	-19.637705
1.562485E-6	-24.866492
1.56253E-6	-34.450265
1.562575E-6	-42.758061
1.56262E-6	-46.873996
1.562665E-6	-48.01893
1.56271E-6	-48.201611
1.562755E-6	-47.796304
1.5628E-6	-45.594057
1.562845E-6	-33.425617
1.56289E-6	-22.940508
1.562935E-6	-18.613816
1.56298E-6	-17.024583
1.563025E-6	-16.742791
1.56307E-6	-16.753061
1.563115E-6	-16.831912
1.56316E-6	-16.942188
1.563205E-6	-17.340036
1.56325E-6	-19.325572
1.563295E-6	-24.207882
1.56334E-6	-33.923306
1.563385E-6	-42.496459
1.56343E-6	-46.811023
