Wavelength (nm)	Power (dBm)
1.525E-6	-62.51192
1.525045E-6	-62.51192
1.52509E-6	-63.068009
1.525135E-6	-65.093393
1.52518E-6	-68.804142
1.525225E-6	-72.019712
1.52527E-6	-73.685562
1.525315E-6	-73.966391
1.52536E-6	-73.842603
1.525405E-6	-73.959901
1.52545E-6	-72.130357
1.525495E-6	-66.907958
1.52554E-6	-63.432312
1.525585E-6	-61.801272
1.52563E-6	-61.325325
1.525675E-6	-61.11652
1.52572E-6	-60.992506
1.525765E-6	-60.817075
1.52581E-6	-60.683388
1.525855E-6	-61.047432
1.5259E-6	-62.672847
1.525945E-6	-66.281935
1.52599E-6	-70.55172
1.526035E-6	-73.189398
1.52608E-6	-73.602148
1.526125E-6	-73.736596
1.52617E-6	-73.643152
1.526215E-6	-72.492602
1.52626E-6	-66.85922
1.526305E-6	-62.656003
1.52635E-6	-60.59932
1.526395E-6	-59.952488
1.52644E-6	-59.75925
1.526485E-6	-59.645703
1.52653E-6	-59.54677
1.526575E-6	-59.503944
1.52662E-6	-59.730584
1.526665E-6	-60.908721
1.52671E-6	-63.966391
1.526755E-6	-68.92112
1.5268E-6	-72.198268
1.526845E-6	-73.379036
1.52689E-6	-73.674415
1.526935E-6	-73.451499
1.52698E-6	-72.940508
1.527025E-6	-67.430418
1.52707E-6	-62.314359
1.527115E-6	-59.746941
1.52716E-6	-58.794261
1.527205E-6	-58.517059
1.52725E-6	-58.416375
1.527295E-6	-58.368386
1.52734E-6	-58.317973
1.527385E-6	-58.401322
1.52743E-6	-59.292235
1.527475E-6	-61.897675
1.52752E-6	-66.619421
1.527565E-6	-71.135093
1.52761E-6	-73.264262
1.527655E-6	-73.625103
1.5277E-6	-73.434227
1.527745E-6	-73.254144
1.52779E-6	-69.179331
1.527835E-6	-62.656003
1.52788E-6	-59.273825
1.527925E-6	-57.878124
1.52797E-6	-57.547342
1.528015E-6	-57.478754
1.52806E-6	-57.418418
1.528105E-6	-57.354183
1.52815E-6	-57.425614
1.528195E-6	-58.016179
1.52824E-6	-59.913998
1.528285E-6	-64.116162
1.52833E-6	-69.621752
1.528375E-6	-72.524328
1.52842E-6	-72.750691
1.528465E-6	-72.045371
1.52851E-6	-69.003194
1.528555E-6	-60.560605
1.5286E-6	-43.681505
1.528645E-6	-36.397854
1.52869E-6	-33.377145
1.528735E-6	-32.301797
1.52878E-6	-32.04885
1.528825E-6	-31.872871
1.52887E-6	-31.78421
1.528915E-6	-31.88157
1.52896E-6	-33.207539
1.529005E-6	-36.957249
1.52905E-6	-45.080783
1.529095E-6	-56.556077
1.52914E-6	-63.26058
1.529185E-6	-68.706324
1.52923E-6	-70.79355
1.529275E-6	-69.706162
1.52932E-6	-63.834195
1.529365E-6	-49.438577
1.52941E-6	-37.953375
1.529455E-6	-34.077122
1.5295E-6	-32.387489
1.529545E-6	-31.959288
1.52959E-6	-31.846215
1.529635E-6	-31.758091
1.52968E-6	-31.761347
1.529725E-6	-32.496459
1.52977E-6	-35.335773
1.529815E-6	-41.585154
1.52986E-6	-52.442013
1.529905E-6	-62.158822
1.52995E-6	-67.223908
1.529995E-6	-70.305841
1.53004E-6	-70.35929
1.530085E-6	-66.13501
1.53013E-6	-54.185055
1.530175E-6	-40.030945
1.53022E-6	-35.03901
1.530265E-6	-32.734358
1.53031E-6	-32.074682
1.530355E-6	-31.868195
1.5304E-6	-31.823024
1.530445E-6	-31.782245
1.53049E-6	-32.057909
1.530535E-6	-33.91795
1.53058E-6	-38.693447
1.530625E-6	-47.977842
1.53067E-6	-59.197344
1.530715E-6	-65.093393
1.53076E-6	-69.593977
1.530805E-6	-70.773783
1.53085E-6	-68.198741
1.530895E-6	-60.17955
1.53094E-6	-43.132744
1.530985E-6	-36.08712
1.53103E-6	-33.191208
1.531075E-6	-32.183882
1.53112E-6	-31.946351
1.531165E-6	-31.909793
1.53121E-6	-31.834936
1.531255E-6	-31.978422
1.5313E-6	-33.238553
1.531345E-6	-36.846595
1.53139E-6	-44.22853
1.531435E-6	-56.214204
1.53148E-6	-62.849163
1.531525E-6	-68.526329
1.53157E-6	-70.604807
1.531615E-6	-69.637705
1.53166E-6	-63.839448
1.531705E-6	-49.411945
1.53175E-6	-37.886124
1.531795E-6	-33.909395
1.53184E-6	-32.270918
1.531885E-6	-31.887602
1.53193E-6	-31.821703
1.531975E-6	-31.79142
1.53202E-6	-31.851533
1.532065E-6	-32.432878
1.53211E-6	-34.873156
1.532155E-6	-40.220479
1.5322E-6	-50.809742
1.532245E-6	-61.076271
1.53229E-6	-66.375175
1.532335E-6	-69.763361
1.53238E-6	-70.345631
1.532425E-6	-66.558043
1.53247E-6	-56.017127
1.532515E-6	-40.445528
1.53256E-6	-35.015516
1.532605E-6	-32.626483
1.53265E-6	-31.9382
1.532695E-6	-31.843559
1.53274E-6	-31.852864
1.532785E-6	-31.88492
1.53283E-6	-32.212701
1.532875E-6	-33.931889
1.53292E-6	-38.332739
1.532965E-6	-46.718243
1.53301E-6	-58.241984
1.533055E-6	-64.507514
1.5331E-6	-69.423339
1.533145E-6	-70.729891
1.53319E-6	-69.20457
1.533235E-6	-62.687337
1.53328E-6	-47.549811
1.533325E-6	-37.144427
1.53337E-6	-33.534982
1.533415E-6	-32.192508
1.53346E-6	-31.957924
1.533505E-6	-31.954517
1.53355E-6	-31.992142
1.533595E-6	-32.186755
1.53364E-6	-33.083881
1.533685E-6	-36.038007
1.53373E-6	-42.211978
1.533775E-6	-54.263163
1.53382E-6	-61.464235
1.533865E-6	-67.670039
1.53391E-6	-70.451306
1.533955E-6	-70.290026
1.534E-6	-65.919297
1.534045E-6	-53.988095
1.53409E-6	-39.742846
1.534135E-6	-34.556839
1.53418E-6	-32.358986
1.534225E-6	-31.860189
1.53427E-6	-31.875546
1.534315E-6	-31.934131
1.53436E-6	-32.037727
1.534405E-6	-32.432118
1.53445E-6	-34.387793
1.534495E-6	-39.04482
1.53454E-6	-48.043771
1.534585E-6	-59.229957
1.53463E-6	-65.25638
1.534675E-6	-69.812995
1.53472E-6	-70.983782
1.534765E-6	-68.655041
1.53481E-6	-61.224559
1.534855E-6	-44.20445
1.5349E-6	-36.300424
1.534945E-6	-33.14527
1.53499E-6	-32.015565
1.535035E-6	-31.923297
1.53508E-6	-31.999018
1.535125E-6	-32.085901
1.53517E-6	-32.31214
1.535215E-6	-33.485281
1.53526E-6	-36.905828
1.535305E-6	-43.836295
1.53535E-6	-55.823623
1.535395E-6	-62.685724
1.53544E-6	-68.579235
1.535485E-6	-70.796679
1.53553E-6	-70.239712
1.535575E-6	-65.379016
1.53562E-6	-52.843309
1.535665E-6	-39.237237
1.53571E-6	-34.417716
1.535755E-6	-32.246809
1.5358E-6	-31.792732
1.535845E-6	-31.805219
1.53589E-6	-31.901038
1.535935E-6	-32.02594
1.53598E-6	-32.515019
1.536025E-6	-34.634416
1.53607E-6	-39.446217
1.536115E-6	-49.527251
1.53616E-6	-60.353633
1.536205E-6	-65.989443
1.53625E-6	-69.75104
1.536295E-6	-70.882034
1.53634E-6	-68.566729
1.536385E-6	-61.002889
1.53643E-6	-43.851028
1.536475E-6	-36.197888
1.53652E-6	-33.034689
1.536565E-6	-31.964063
1.53661E-6	-31.861522
1.536655E-6	-31.897675
1.5367E-6	-31.950432
1.536745E-6	-32.14101
1.53679E-6	-33.274404
1.536835E-6	-36.703988
1.53688E-6	-43.885954
1.536925E-6	-55.802094
1.53697E-6	-62.590061
1.537015E-6	-68.620133
1.53706E-6	-70.751524
1.537105E-6	-70.324052
1.53715E-6	-65.654311
1.537195E-6	-53.275327
1.53724E-6	-39.325572
1.537285E-6	-34.534573
1.53733E-6	-32.409368
1.537375E-6	-31.919917
1.53742E-6	-31.914514
1.537465E-6	-31.949752
1.53751E-6	-32.000395
1.537555E-6	-32.370215
1.5376E-6	-34.49894
1.537645E-6	-39.661743
1.53769E-6	-49.143527
1.537735E-6	-59.931063
1.53778E-6	-65.699249
1.537825E-6	-69.609827
1.53787E-6	-70.918368
1.537915E-6	-68.931295
1.53796E-6	-62.053726
1.538005E-6	-46.831912
1.53805E-6	-36.683703
1.538095E-6	-33.228495
1.53814E-6	-32.004527
1.538185E-6	-31.803245
1.53823E-6	-31.767867
1.538275E-6	-31.764606
1.53832E-6	-31.860856
1.538365E-6	-32.845817
1.53841E-6	-36.111886
1.538455E-6	-42.866775
1.5385E-6	-54.932245
1.538545E-6	-61.867527
1.53859E-6	-67.899492
1.538635E-6	-70.635868
1.53868E-6	-70.531549
1.538725E-6	-66.348866
1.53877E-6	-54.886515
1.538815E-6	-40.329203
1.53886E-6	-35.026556
1.538905E-6	-32.680891
1.53895E-6	-32.073982
1.538995E-6	-31.988022
1.53904E-6	-31.957924
1.539085E-6	-31.918566
1.53913E-6	-32.227907
1.539175E-6	-34.048346
1.53922E-6	-38.823973
1.539265E-6	-47.822529
1.53931E-6	-59.318141
1.539355E-6	-65.182708
1.5394E-6	-69.649707
1.539445E-6	-71.040253
1.53949E-6	-69.28118
1.539535E-6	-63.021606
1.53958E-6	-47.589518
1.539625E-6	-37.196493
1.53967E-6	-33.67138
1.539715E-6	-32.309182
1.53976E-6	-32.052332
1.539805E-6	-31.981848
1.53985E-6	-31.932097
1.539895E-6	-31.948391
1.53994E-6	-32.727028
1.539985E-6	-35.686362
1.54003E-6	-42.170976
1.540075E-6	-54.163479
1.54012E-6	-62.4071
1.540165E-6	-67.469044
1.54021E-6	-70.493431
1.540255E-6	-70.668165
1.5403E-6	-66.987529
1.540345E-6	-56.563945
1.54039E-6	-41.337718
1.540435E-6	-35.466817
1.54048E-6	-32.806687
1.540525E-6	-32.054422
1.54057E-6	-31.891628
1.540615E-6	-31.821703
1.54066E-6	-31.799957
1.540705E-6	-32.008663
1.54075E-6	-33.512498
1.540795E-6	-37.772835
1.54084E-6	-46.110112
1.540885E-6	-57.9129
1.54093E-6	-63.893398
1.540975E-6	-69.193735
1.54102E-6	-70.940962
1.541065E-6	-69.93962
1.54111E-6	-64.369938
1.541155E-6	-50.419142
1.5412E-6	-38.401322
1.541245E-6	-34.245812
1.54129E-6	-32.468768
1.541335E-6	-32.057211
1.54138E-6	-31.944312
1.541425E-6	-31.91384
1.54147E-6	-31.907771
1.541515E-6	-32.502637
1.54156E-6	-34.974363
1.541605E-6	-40.437355
1.54165E-6	-50.90444
1.541695E-6	-61.153745
1.54174E-6	-66.373291
1.541785E-6	-69.965395
1.54183E-6	-70.875122
1.541875E-6	-68.233301
1.54192E-6	-60.189519
1.541965E-6	-42.955921
1.54201E-6	-35.941416
1.542055E-6	-33.03731
1.5421E-6	-32.057909
1.542145E-6	-31.852199
1.54219E-6	-31.78552
1.542235E-6	-31.769825
1.54228E-6	-31.878222
1.542325E-6	-32.995559
1.54237E-6	-36.437829
1.542415E-6	-43.64818
1.54246E-6	-55.377518
1.542505E-6	-62.241712
1.54255E-6	-68.007935
1.542595E-6	-70.604807
1.54264E-6	-70.315171
1.542685E-6	-65.948245
1.54273E-6	-53.928668
1.542775E-6	-39.965395
1.54282E-6	-34.921441
1.542865E-6	-32.749873
1.54291E-6	-32.175274
1.542955E-6	-32.04885
1.543E-6	-32.023171
1.543045E-6	-31.999018
1.54309E-6	-32.238802
1.543135E-6	-33.968556
1.54318E-6	-38.467951
1.543225E-6	-47.476325
1.54327E-6	-58.687022
1.543315E-6	-64.641997
1.54336E-6	-69.527251
1.543405E-6	-71.01604
1.54345E-6	-69.423339
1.543495E-6	-63.119363
1.54354E-6	-48.093882
1.543585E-6	-37.481185
1.54363E-6	-33.759243
1.543675E-6	-32.293689
1.54372E-6	-31.977738
1.543765E-6	-31.936165
1.54381E-6	-31.904403
1.543855E-6	-31.909793
1.5439E-6	-32.520447
1.543945E-6	-35.066814
1.54399E-6	-40.62031
1.544035E-6	-51.399017
1.54408E-6	-61.261565
1.544125E-6	-66.633402
1.54417E-6	-69.969705
1.544215E-6	-70.769115
1.54426E-6	-68.024438
1.544305E-6	-59.767475
1.54435E-6	-42.721336
1.544395E-6	-35.821963
1.54444E-6	-33.147062
1.544485E-6	-32.2541
1.54453E-6	-32.078185
1.544575E-6	-32.04398
1.54462E-6	-32.003149
1.544665E-6	-32.080989
1.54471E-6	-33.151546
1.544755E-6	-36.615435
1.5448E-6	-43.748934
1.544845E-6	-55.725139
1.54489E-6	-62.739251
1.544935E-6	-68.291518
1.54498E-6	-70.647447
1.545025E-6	-70.184079
1.54507E-6	-65.459177
1.545115E-6	-52.75888
1.54516E-6	-39.366666
1.545205E-6	-34.594203
1.54525E-6	-32.460341
1.545295E-6	-31.901038
1.54534E-6	-31.852864
1.545385E-6	-31.807194
1.54543E-6	-31.804561
1.545475E-6	-32.127521
1.54552E-6	-33.897658
1.545565E-6	-38.517059
1.54561E-6	-47.203331
1.545655E-6	-58.671002
1.5457E-6	-64.695442
1.545745E-6	-69.427144
1.54579E-6	-70.915686
1.545835E-6	-69.558524
1.54588E-6	-63.521282
1.545925E-6	-49.020489
1.54597E-6	-37.642191
1.546015E-6	-33.697756
1.54606E-6	-32.213424
1.546105E-6	-31.940236
1.54615E-6	-31.844887
1.546195E-6	-31.840903
1.54624E-6	-31.857524
1.546285E-6	-32.401056
1.54633E-6	-34.717262
1.546375E-6	-39.982663
1.54642E-6	-50.086853
1.546465E-6	-60.732975
1.54651E-6	-66.120765
1.546555E-6	-69.775716
1.5466E-6	-70.779496
1.546645E-6	-68.285661
1.54669E-6	-60.348924
1.546735E-6	-43.527149
1.54678E-6	-36.099485
1.546825E-6	-33.179452
1.54687E-6	-32.102783
1.546915E-6	-31.892971
1.54696E-6	-31.851533
1.547005E-6	-31.813123
1.54705E-6	-31.928033
1.547095E-6	-32.838297
1.54714E-6	-35.920995
1.547185E-6	-42.324731
1.54723E-6	-54.064924
1.547275E-6	-62.485669
1.54732E-6	-67.659892
1.547365E-6	-70.372046
1.54741E-6	-70.48274
1.547455E-6	-66.659486
1.5475E-6	-56.147513
1.547545E-6	-40.968557
1.54759E-6	-35.238933
1.547635E-6	-32.674454
1.54768E-6	-32.010733
1.547725E-6	-31.88492
1.54777E-6	-31.850203
1.547815E-6	-31.846215
1.54786E-6	-32.037727
1.547905E-6	-33.304972
1.54795E-6	-37.153437
1.547995E-6	-44.93901
1.54804E-6	-56.603498
1.548085E-6	-63.073293
1.54813E-6	-68.51089
1.548175E-6	-70.632852
1.54822E-6	-69.93534
1.548265E-6	-65.011383
1.54831E-6	-51.780282
1.548355E-6	-39.048306
1.5484E-6	-34.416515
1.548445E-6	-32.428318
1.54849E-6	-31.904403
1.548535E-6	-31.821042
1.54858E-6	-31.813783
1.548625E-6	-31.827653
1.54867E-6	-32.153827
1.548715E-6	-33.982659
1.54876E-6	-38.745187
1.548805E-6	-47.592012
1.54885E-6	-58.961963
1.548895E-6	-64.91605
1.54894E-6	-69.597934
1.548985E-6	-70.846002
1.54903E-6	-69.408154
1.549075E-6	-63.295686
1.54912E-6	-49.072794
1.549165E-6	-37.809397
1.54921E-6	-33.840499
1.549255E-6	-32.225007
1.5493E-6	-31.88425
1.549345E-6	-31.844223
1.54939E-6	-31.848873
1.549435E-6	-31.86953
1.54948E-6	-32.419212
1.549525E-6	-34.771647
1.54957E-6	-39.783973
1.549615E-6	-49.986991
1.54966E-6	-60.374413
1.549705E-6	-65.932895
1.54975E-6	-69.641702
1.549795E-6	-70.881502
1.54984E-6	-68.664611
1.549885E-6	-61.264469
1.54993E-6	-44.49527
1.549975E-6	-36.507225
1.55002E-6	-33.349822
1.550065E-6	-32.191069
1.55011E-6	-31.959969
1.550155E-6	-31.934131
1.5502E-6	-31.91384
1.550245E-6	-31.959969
1.55029E-6	-32.590061
1.550335E-6	-35.148467
1.55038E-6	-40.896958
1.550425E-6	-51.88492
1.55047E-6	-61.452083
1.550515E-6	-66.846595
1.55056E-6	-70.06035
1.550605E-6	-70.930727
1.55065E-6	-67.384992
1.550695E-6	-58.982529
1.55074E-6	-42.19035
1.550785E-6	-35.721894
1.55083E-6	-32.994693
1.550875E-6	-32.109837
1.55092E-6	-31.953836
1.550965E-6	-31.940236
1.55101E-6	-31.899692
1.551055E-6	-31.978422
1.5511E-6	-32.897134
1.551145E-6	-36.095948
1.55119E-6	-42.701875
1.551235E-6	-54.601714
1.55128E-6	-61.588283
1.551325E-6	-67.762445
1.55137E-6	-70.460954
1.551415E-6	-70.606805
1.55146E-6	-66.687752
1.551505E-6	-56.27088
1.55155E-6	-41.333583
1.551595E-6	-35.49443
1.55164E-6	-32.856702
1.551685E-6	-32.108425
1.55173E-6	-31.977738
1.551775E-6	-31.964746
1.55182E-6	-31.915864
1.551865E-6	-32.04398
1.55191E-6	-33.304972
1.551955E-6	-36.93575
1.552E-6	-44.423725
1.552045E-6	-55.977386
1.55209E-6	-62.655202
1.552135E-6	-68.480176
1.55218E-6	-70.679831
1.552225E-6	-70.054189
1.55227E-6	-65.608253
1.552315E-6	-53.23215
1.55236E-6	-39.641702
1.552405E-6	-34.76774
1.55245E-6	-32.575105
1.552495E-6	-32.066288
1.55254E-6	-31.975684
1.552585E-6	-31.936843
1.55263E-6	-31.918566
1.552675E-6	-32.132486
1.55272E-6	-33.704885
1.552765E-6	-37.975117
1.55281E-6	-46.278247
1.552855E-6	-57.644716
1.5529E-6	-64.030732
1.552945E-6	-69.055289
1.55299E-6	-70.802945
1.553035E-6	-69.948195
1.55308E-6	-64.649592
1.553125E-6	-51.065712
1.55317E-6	-38.554258
1.553215E-6	-34.210172
1.55326E-6	-32.344805
1.553305E-6	-31.929388
1.55335E-6	-31.848873
1.553395E-6	-31.816421
1.55344E-6	-31.802587
1.553485E-6	-32.179576
1.55353E-6	-34.004444
1.553575E-6	-38.613816
1.55362E-6	-47.23768
1.553665E-6	-58.461851
1.55371E-6	-64.423725
1.553755E-6	-69.457701
1.5538E-6	-70.892689
1.553845E-6	-69.597934
1.55389E-6	-63.685562
1.553935E-6	-49.393022
1.55398E-6	-37.867479
1.554025E-6	-33.980486
1.55407E-6	-32.438205
1.554115E-6	-32.068385
1.55416E-6	-31.963381
1.554205E-6	-31.948391
1.55425E-6	-31.952474
1.554295E-6	-32.296636
1.55434E-6	-34.29107
1.554385E-6	-39.329291
1.55443E-6	-48.480176
1.554475E-6	-59.41574
1.55452E-6	-65.300308
1.554565E-6	-69.681877
1.55461E-6	-70.882034
1.554655E-6	-69.179331
1.5547E-6	-62.683307
1.554745E-6	-47.68021
1.55479E-6	-37.221617
1.554835E-6	-33.76544
1.55488E-6	-32.363474
1.554925E-6	-32.094334
1.55497E-6	-31.991455
1.555015E-6	-31.958606
1.55506E-6	-32.008663
1.555105E-6	-32.429078
1.55515E-6	-34.538276
1.555195E-6	-39.538952
1.55524E-6	-49.677843
1.555285E-6	-60.17955
1.55533E-6	-65.746288
1.555375E-6	-69.710223
1.55542E-6	-70.795114
1.555465E-6	-68.738686
1.55551E-6	-61.435732
1.555555E-6	-46.27088
1.5556E-6	-36.701955
1.555645E-6	-33.500813
1.55569E-6	-32.28633
1.555735E-6	-32.023863
1.55578E-6	-31.965429
1.555825E-6	-31.968844
1.55587E-6	-31.981163
1.555915E-6	-32.471836
1.55596E-6	-34.732731
1.556005E-6	-40.011306
1.55605E-6	-50.396719
1.556095E-6	-60.66108
1.55614E-6	-66.143937
1.556185E-6	-69.783973
1.55623E-6	-70.946899
1.556275E-6	-68.648673
1.55632E-6	-61.412824
1.556365E-6	-44.545692
1.55641E-6	-36.68168
1.556455E-6	-33.429441
1.5565E-6	-32.225732
1.556545E-6	-31.945671
1.55659E-6	-31.888944
1.556635E-6	-31.919917
1.55668E-6	-31.954517
1.556725E-6	-32.539889
1.55677E-6	-35.044557
1.556815E-6	-40.540393
1.55686E-6	-50.99469
1.556905E-6	-61.090762
1.55695E-6	-66.371407
1.556995E-6	-69.995659
1.55704E-6	-70.868222
1.557085E-6	-68.616973
1.55713E-6	-60.952304
1.557175E-6	-44.309774
1.55722E-6	-36.360122
1.557265E-6	-33.321736
1.55731E-6	-32.174557
1.557355E-6	-31.944312
1.5574E-6	-31.915864
1.557445E-6	-31.921945
1.55749E-6	-31.942274
1.557535E-6	-32.562551
1.55758E-6	-35.192746
1.557625E-6	-40.870344
1.55767E-6	-51.369152
1.557715E-6	-61.276689
1.55776E-6	-66.530605
1.557805E-6	-70.137659
1.55785E-6	-71.018235
1.557895E-6	-68.428456
1.55794E-6	-60.54827
1.557985E-6	-43.895528
1.55803E-6	-36.395959
1.558075E-6	-33.237638
1.55812E-6	-32.001083
1.558165E-6	-31.769172
1.55821E-6	-31.749636
1.558255E-6	-31.76265
1.5583E-6	-31.809828
1.558345E-6	-32.488749
1.55839E-6	-35.172693
1.558435E-6	-40.990869
1.55848E-6	-51.574532
1.558525E-6	-61.28252
1.55857E-6	-66.701955
1.558615E-6	-70.160581
1.55866E-6	-70.987597
1.558705E-6	-68.557372
1.55875E-6	-60.484682
1.558795E-6	-43.997897
1.55884E-6	-36.33017
1.558885E-6	-33.194832
1.55893E-6	-32.056514
1.558975E-6	-31.850203
1.55902E-6	-31.841567
1.559065E-6	-31.854195
1.55911E-6	-31.927356
1.559155E-6	-32.586908
1.5592E-6	-35.137112
1.559245E-6	-40.670699
1.55929E-6	-51.384059
1.559335E-6	-61.364392
1.55938E-6	-66.712128
1.559425E-6	-70.171862
1.55947E-6	-70.991961
1.559515E-6	-68.398317
1.55956E-6	-60.328734
1.559605E-6	-43.548726
1.55965E-6	-36.160052
1.559695E-6	-33.157832
1.55974E-6	-32.12823
1.559785E-6	-31.961334
1.55983E-6	-31.969528
1.559875E-6	-32.019021
1.55992E-6	-32.102078
1.559965E-6	-32.765443
1.56001E-6	-35.374523
1.560055E-6	-41.108104
1.5601E-6	-51.680023
1.560145E-6	-61.57266
1.56019E-6	-66.829819
1.560235E-6	-70.154277
1.56028E-6	-70.962591
1.560325E-6	-68.626459
1.56037E-6	-61.383461
1.560415E-6	-46.274562
1.56046E-6	-36.495581
1.560505E-6	-33.210266
1.56055E-6	-32.046762
1.560595E-6	-31.836924
1.56064E-6	-31.85819
1.560685E-6	-31.88425
1.56073E-6	-31.972947
1.560775E-6	-32.644809
1.56082E-6	-35.260753
1.560865E-6	-40.860273
1.56091E-6	-51.597057
1.560955E-6	-61.411621
1.561E-6	-66.710091
1.561045E-6	-70.2489
1.56109E-6	-71.152613
1.561135E-6	-68.748442
1.56118E-6	-61.504577
1.561225E-6	-46.156466
1.56127E-6	-36.458916
1.561315E-6	-33.170431
1.56136E-6	-32.004527
1.561405E-6	-31.811146
1.56145E-6	-31.826991
1.561495E-6	-31.8923
1.56154E-6	-31.981163
1.561585E-6	-32.579036
1.56163E-6	-35.019653
1.561675E-6	-40.317506
1.56172E-6	-50.68593
1.561765E-6	-60.862391
1.56181E-6	-66.346993
1.561855E-6	-70.133626
1.5619E-6	-71.334764
1.561945E-6	-69.344203
1.56199E-6	-62.874345
1.562035E-6	-47.838341
1.56208E-6	-37.173779
1.562125E-6	-33.528127
1.56217E-6	-32.083795
1.562215E-6	-31.828314
1.56226E-6	-31.848209
1.562305E-6	-31.907771
1.56235E-6	-32.013494
1.562395E-6	-32.469534
1.56244E-6	-34.529641
1.562485E-6	-39.570309
1.56253E-6	-48.850556
1.562575E-6	-59.531148
1.56262E-6	-65.386516
1.562665E-6	-69.637705
1.56271E-6	-71.115958
1.562755E-6	-69.825493
1.5628E-6	-63.808023
1.562845E-6	-49.625735
1.56289E-6	-37.749493
1.562935E-6	-33.739678
1.56298E-6	-32.056514
1.563025E-6	-31.764606
1.56307E-6	-31.783555
1.563115E-6	-31.853529
1.56316E-6	-31.962698
1.563205E-6	-32.349278
1.56325E-6	-34.27942
1.563295E-6	-39.104481
1.56334E-6	-48.300318
1.563385E-6	-59.062282
1.56343E-6	-65.027938
1.563475E-6	-69.511699
