Wavelength (nm)	Power (dBm)
1.525E-6	-69.450041
1.525045E-6	-69.434763
1.52509E-6	-69.901244
1.525135E-6	-71.713401
1.52518E-6	-75.307673
1.525225E-6	-78.877302
1.52527E-6	-80.180456
1.525315E-6	-80.141246
1.52536E-6	-80.610802
1.525405E-6	-80.468688
1.52545E-6	-79.669786
1.525495E-6	-74.428539
1.52554E-6	-70.768596
1.525585E-6	-68.965384
1.52563E-6	-68.31208
1.525675E-6	-68.236193
1.52572E-6	-67.969671
1.525765E-6	-67.654827
1.52581E-6	-67.634627
1.525855E-6	-68.035475
1.5259E-6	-69.641702
1.525945E-6	-72.787666
1.52599E-6	-77.449688
1.526035E-6	-79.918258
1.52608E-6	-80.992506
1.526125E-6	-80.409109
1.52617E-6	-80.646439
1.526215E-6	-80.143939
1.52626E-6	-74.610494
1.526305E-6	-69.991323
1.52635E-6	-67.624563
1.526395E-6	-66.92504
1.52644E-6	-66.708056
1.526485E-6	-66.659486
1.52653E-6	-66.554113
1.526575E-6	-66.485902
1.52662E-6	-66.706021
1.526665E-6	-67.870138
1.52671E-6	-70.497812
1.526755E-6	-75.578339
1.5268E-6	-78.626459
1.526845E-6	-80.372993
1.52689E-6	-81.043565
1.526935E-6	-80.301184
1.52698E-6	-79.871628
1.527025E-6	-75.176982
1.52707E-6	-69.763361
1.527115E-6	-66.651443
1.52716E-6	-65.81533
1.527205E-6	-65.495969
1.52725E-6	-65.412111
1.527295E-6	-65.358086
1.52734E-6	-65.28855
1.527385E-6	-65.379016
1.52743E-6	-66.151092
1.527475E-6	-68.748442
1.52752E-6	-72.790143
1.527565E-6	-77.617029
1.52761E-6	-79.792245
1.527655E-6	-80.270108
1.5277E-6	-80.491972
1.527745E-6	-80.330608
1.52779E-6	-76.554113
1.527835E-6	-70.194513
1.52788E-6	-66.318991
1.527925E-6	-64.929541
1.52797E-6	-64.57299
1.528015E-6	-64.426131
1.52806E-6	-64.378261
1.528105E-6	-64.301581
1.52815E-6	-64.339162
1.528195E-6	-64.871822
1.52824E-6	-66.861328
1.528285E-6	-70.562088
1.52833E-6	-76.031036
1.528375E-6	-79.193735
1.52842E-6	-79.665762
1.528465E-6	-79.118639
1.52851E-6	-76.081831
1.528555E-6	-68.768019
1.5286E-6	-52.353756
1.528645E-6	-43.397038
1.52869E-6	-40.315638
1.528735E-6	-39.310724
1.52878E-6	-39.037854
1.528825E-6	-38.944898
1.52887E-6	-38.847224
1.528915E-6	-38.955129
1.52896E-6	-40.368736
1.529005E-6	-44.385408
1.52905E-6	-52.624893
1.529095E-6	-61.653886
1.52914E-6	-69.219058
1.529185E-6	-75.300308
1.52923E-6	-77.191941
1.529275E-6	-77.026773
1.52932E-6	-71.671719
1.529365E-6	-56.183435
1.52941E-6	-44.905286
1.529455E-6	-40.871936
1.5295E-6	-39.310724
1.529545E-6	-38.91435
1.52959E-6	-38.847224
1.529635E-6	-38.709549
1.52968E-6	-38.71924
1.529725E-6	-39.538952
1.52977E-6	-42.382976
1.529815E-6	-49.161392
1.52986E-6	-59.800533
1.529905E-6	-67.356545
1.52995E-6	-73.222106
1.529995E-6	-76.775739
1.53004E-6	-77.607005
1.530085E-6	-73.249553
1.53013E-6	-61.99833
1.530175E-6	-48.204482
1.53022E-6	-41.782245
1.530265E-6	-39.637705
1.53031E-6	-38.999743
1.530355E-6	-38.863908
1.5304E-6	-38.850556
1.530445E-6	-38.71924
1.53049E-6	-39.072794
1.530535E-6	-41.115397
1.53058E-6	-46.206945
1.530625E-6	-56.118988
1.53067E-6	-64.280584
1.530715E-6	-71.247072
1.53076E-6	-76.239708
1.530805E-6	-77.554755
1.53085E-6	-75.066814
1.530895E-6	-68.247782
1.53094E-6	-51.91789
1.530985E-6	-43.192114
1.53103E-6	-40.138107
1.531075E-6	-39.229957
1.53112E-6	-39.017025
1.531165E-6	-38.989406
1.53121E-6	-38.965384
1.531255E-6	-39.086848
1.5313E-6	-40.25903
1.531345E-6	-44.014283
1.53139E-6	-51.708249
1.531435E-6	-60.995236
1.53148E-6	-69.593977
1.531525E-6	-74.763836
1.53157E-6	-77.825161
1.531615E-6	-76.483969
1.53166E-6	-71.701176
1.531705E-6	-56.524748
1.53175E-6	-45.003129
1.531795E-6	-40.745332
1.53184E-6	-39.172146
1.531885E-6	-38.833923
1.53193E-6	-38.797552
1.531975E-6	-38.817353
1.53202E-6	-38.817353
1.532065E-6	-39.515582
1.53211E-6	-42.272384
1.532155E-6	-48.830604
1.5322E-6	-59.400581
1.532245E-6	-66.961562
1.53229E-6	-72.730284
1.532335E-6	-77.642191
1.53238E-6	-77.366007
1.532425E-6	-74.098272
1.53247E-6	-63.921163
1.532515E-6	-48.823973
1.53256E-6	-41.854195
1.532605E-6	-39.488475
1.53265E-6	-38.90759
1.532695E-6	-38.837244
1.53274E-6	-38.843895
1.532785E-6	-38.850556
1.53283E-6	-39.208188
1.532875E-6	-40.92965
1.53292E-6	-45.43027
1.532965E-6	-54.219341
1.53301E-6	-62.997291
1.533055E-6	-70.387213
1.5331E-6	-75.927791
1.533145E-6	-77.442452
1.53319E-6	-75.914209
1.533235E-6	-70.252581
1.53328E-6	-53.805936
1.533325E-6	-43.837346
1.53337E-6	-40.24063
1.533415E-6	-39.051796
1.53346E-6	-38.847224
1.533505E-6	-38.87395
1.53355E-6	-38.91435
1.533595E-6	-39.093893
1.53364E-6	-40.039263
1.533685E-6	-43.10336
1.53373E-6	-49.550685
1.533775E-6	-60.806081
1.53382E-6	-68.150248
1.533865E-6	-73.757179
1.53391E-6	-77.358908
1.533955E-6	-77.554755
1.534E-6	-73.397988
1.534045E-6	-62.095741
1.53409E-6	-47.90217
1.534135E-6	-41.34896
1.53418E-6	-39.277501
1.534225E-6	-38.85389
1.53427E-6	-38.827287
1.534315E-6	-38.897471
1.53436E-6	-39.020489
1.534405E-6	-39.54677
1.53445E-6	-41.737956
1.534495E-6	-46.987529
1.53454E-6	-56.617428
1.534585E-6	-64.847887
1.53463E-6	-71.61088
1.534675E-6	-76.307841
1.53472E-6	-77.975117
1.534765E-6	-75.723516
1.53481E-6	-69.111554
1.534855E-6	-52.634442
1.5349E-6	-43.20663
1.534945E-6	-39.952488
1.53499E-6	-38.965384
1.535035E-6	-38.904215
1.53508E-6	-38.968807
1.535125E-6	-39.079815
1.53517E-6	-39.336741
1.535215E-6	-40.576447
1.53526E-6	-44.084902
1.535305E-6	-51.339491
1.53535E-6	-62.560984
1.535395E-6	-69.259153
1.53544E-6	-74.396151
1.535485E-6	-77.469044
1.53553E-6	-77.559704
1.535575E-6	-72.97311
1.53562E-6	-60.934495
1.535665E-6	-47.486051
1.53571E-6	-41.12833
1.535755E-6	-39.157813
1.5358E-6	-38.807441
1.535845E-6	-38.817353
1.53589E-6	-38.894103
1.535935E-6	-39.0309
1.53598E-6	-39.641702
1.536025E-6	-41.88492
1.53607E-6	-47.330631
1.536115E-6	-57.444863
1.53616E-6	-65.554868
1.536205E-6	-72.213424
1.53625E-6	-76.9897
1.536295E-6	-78.645493
1.53634E-6	-75.662302
1.536385E-6	-69.362914
1.53643E-6	-52.675258
1.536475E-6	-43.249553
1.53652E-6	-39.97402
1.536565E-6	-38.955129
1.53661E-6	-38.833923
1.536655E-6	-38.890738
1.5367E-6	-38.951716
1.536745E-6	-39.164974
1.53679E-6	-40.363066
1.536835E-6	-43.996807
1.53688E-6	-51.580152
1.536925E-6	-60.793029
1.53697E-6	-69.370422
1.537015E-6	-74.762535
1.53706E-6	-78.06041
1.537105E-6	-77.440043
1.53715E-6	-73.151546
1.537195E-6	-61.118205
1.53724E-6	-47.589518
1.537285E-6	-41.403214
1.53733E-6	-39.329291
1.537375E-6	-38.900841
1.53742E-6	-38.900841
1.537465E-6	-38.955129
1.53751E-6	-38.968807
1.537555E-6	-39.446217
1.5376E-6	-41.728247
1.537645E-6	-47.256112
1.53769E-6	-57.328283
1.537735E-6	-65.295895
1.53778E-6	-72.119731
1.537825E-6	-77.000571
1.53787E-6	-77.574586
1.537915E-6	-75.924392
1.53796E-6	-70.137659
1.538005E-6	-53.906191
1.53805E-6	-43.835245
1.538095E-6	-40.206338
1.53814E-6	-39.023957
1.538185E-6	-38.877302
1.53823E-6	-38.897471
1.538275E-6	-38.847224
1.53832E-6	-38.968807
1.538365E-6	-40.058589
1.53841E-6	-43.513473
1.538455E-6	-50.86451
1.5385E-6	-62.160964
1.538545E-6	-68.996295
1.53859E-6	-74.180503
1.538635E-6	-77.552282
1.53868E-6	-77.32359
1.538725E-6	-73.852082
1.53877E-6	-62.521999
1.538815E-6	-48.548036
1.53886E-6	-41.790108
1.538905E-6	-39.605859
1.53895E-6	-39.055289
1.538995E-6	-38.961963
1.53904E-6	-38.944898
1.539085E-6	-38.92112
1.53913E-6	-39.266483
1.539175E-6	-41.263888
1.53922E-6	-46.276404
1.539265E-6	-55.905741
1.53931E-6	-64.409317
1.539355E-6	-71.438151
1.5394E-6	-76.071273
1.539445E-6	-78.407337
1.53949E-6	-76.472388
1.539535E-6	-70.83704
1.53958E-6	-54.792545
1.539625E-6	-44.323856
1.53967E-6	-40.608303
1.539715E-6	-39.310724
1.53976E-6	-39.076303
1.539805E-6	-38.975663
1.53985E-6	-38.944898
1.539895E-6	-39.006647
1.53994E-6	-39.850597
1.539985E-6	-43.115802
1.54003E-6	-49.833845
1.540075E-6	-61.343039
1.54012E-6	-68.291518
1.540165E-6	-73.706924
1.54021E-6	-77.394516
1.540255E-6	-77.675121
1.5403E-6	-74.813545
1.540345E-6	-64.769042
1.54039E-6	-49.694003
1.540435E-6	-42.320283
1.54048E-6	-39.714287
1.540525E-6	-39.013563
1.54057E-6	-38.880657
1.540615E-6	-38.817353
1.54066E-6	-38.745187
1.540705E-6	-39.072794
1.54075E-6	-40.76756
1.540795E-6	-45.270973
1.54084E-6	-54.210172
1.540885E-6	-62.814153
1.54093E-6	-70.387688
1.540975E-6	-75.787252
1.54102E-6	-77.977842
1.541065E-6	-76.352614
1.54111E-6	-72.034257
1.541155E-6	-57.020208
1.5412E-6	-46.23423
1.541245E-6	-41.040805
1.54129E-6	-39.500071
1.541335E-6	-39.125735
1.54138E-6	-39.013563
1.541425E-6	-38.979095
1.54147E-6	-39.010104
1.541515E-6	-39.641702
1.54156E-6	-42.3114
1.541605E-6	-48.523237
1.54165E-6	-59.065783
1.541695E-6	-66.437829
1.54174E-6	-72.837462
1.541785E-6	-76.456994
1.54183E-6	-77.347104
1.541875E-6	-75.368539
1.54192E-6	-68.071539
1.541965E-6	-51.486805
1.54201E-6	-42.952491
1.542055E-6	-39.969705
1.5421E-6	-39.062282
1.542145E-6	-38.8706
1.54219E-6	-38.784402
1.542235E-6	-38.761484
1.54228E-6	-38.877302
1.542325E-6	-40.069166
1.54237E-6	-43.622102
1.542415E-6	-51.066822
1.54246E-6	-62.115488
1.542505E-6	-69.023957
1.54255E-6	-74.31329
1.542595E-6	-77.867479
1.54264E-6	-77.544873
1.542685E-6	-73.527149
1.54273E-6	-61.728893
1.542775E-6	-48.218867
1.54282E-6	-41.712757
1.542865E-6	-39.601894
1.54291E-6	-39.118639
1.542955E-6	-39.010104
1.543E-6	-38.961963
1.543045E-6	-38.931295
1.54309E-6	-39.229957
1.543135E-6	-41.05961
1.54318E-6	-45.958508
1.543225E-6	-55.463759
1.54327E-6	-63.788237
1.543315E-6	-71.005625
1.54336E-6	-75.759355
1.543405E-6	-78.068754
1.54345E-6	-76.528652
1.543495E-6	-71.108664
1.54354E-6	-55.491353
1.543585E-6	-44.718549
1.54363E-6	-40.720653
1.543675E-6	-39.310724
1.54372E-6	-39.010104
1.543765E-6	-38.934691
1.54381E-6	-38.931295
1.543855E-6	-38.965384
1.5439E-6	-39.742846
1.543945E-6	-42.563335
1.54399E-6	-49.295927
1.544035E-6	-59.578184
1.54408E-6	-66.998395
1.544125E-6	-73.198459
1.54417E-6	-76.897316
1.544215E-6	-77.300203
1.54426E-6	-75.089186
1.544305E-6	-66.561977
1.54435E-6	-51.21823
1.544395E-6	-42.819137
1.54444E-6	-39.956786
1.544485E-6	-39.150664
1.54453E-6	-39.003194
1.544575E-6	-38.972234
1.54462E-6	-38.955129
1.544665E-6	-39.065783
1.54471E-6	-40.278898
1.544755E-6	-44.066032
1.5448E-6	-51.90373
1.544845E-6	-60.847585
1.54489E-6	-69.775716
1.544935E-6	-74.650859
1.54498E-6	-77.297871
1.545025E-6	-77.554755
1.54507E-6	-73.13185
1.545115E-6	-61.085741
1.54516E-6	-47.9129
1.545205E-6	-41.588909
1.54525E-6	-39.438577
1.545295E-6	-38.92112
1.54534E-6	-38.867253
1.545385E-6	-38.833923
1.54543E-6	-38.840568
1.545475E-6	-39.20457
1.54552E-6	-41.009459
1.545565E-6	-45.861975
1.54561E-6	-54.791236
1.545655E-6	-63.507625
1.5457E-6	-70.681863
1.545745E-6	-75.825283
1.54579E-6	-78.167302
1.545835E-6	-76.532559
1.54588E-6	-71.059056
1.545925E-6	-55.934598
1.54597E-6	-44.527177
1.546015E-6	-40.599818
1.54606E-6	-39.240882
1.546105E-6	-38.961963
1.54615E-6	-38.90759
1.546195E-6	-38.904215
1.54624E-6	-38.934691
1.546285E-6	-39.500071
1.54633E-6	-42.067686
1.546375E-6	-48.256494
1.54642E-6	-58.735439
1.546465E-6	-66.403542
1.54651E-6	-72.429838
1.546555E-6	-77.144427
1.5466E-6	-77.6675
1.546645E-6	-75.383514
1.54669E-6	-69.108016
1.546735E-6	-52.722148
1.54678E-6	-43.379036
1.546825E-6	-40.134074
1.54687E-6	-39.100949
1.546915E-6	-38.931295
1.54696E-6	-38.900841
1.547005E-6	-38.857227
1.54705E-6	-38.992849
1.547095E-6	-40.086853
1.54714E-6	-43.455347
1.547185E-6	-50.349865
1.54723E-6	-61.557714
1.547275E-6	-68.797552
1.54732E-6	-73.887016
1.547365E-6	-77.044329
1.54741E-6	-77.535014
1.547455E-6	-74.094925
1.5475E-6	-63.502758
1.547545E-6	-48.992849
1.54759E-6	-41.99833
1.547635E-6	-39.629721
1.54768E-6	-39.0309
1.547725E-6	-38.931295
1.54777E-6	-38.894103
1.547815E-6	-38.877302
1.54786E-6	-39.08333
1.547905E-6	-40.528114
1.54795E-6	-44.621809
1.547995E-6	-52.854188
1.54804E-6	-61.75744
1.548085E-6	-69.248181
1.54813E-6	-74.921441
1.548175E-6	-77.78325
1.54822E-6	-77.361273
1.548265E-6	-72.421487
1.54831E-6	-59.262816
1.548355E-6	-46.846595
1.5484E-6	-41.253443
1.548445E-6	-39.469216
1.54849E-6	-39.069287
1.548535E-6	-38.992849
1.54858E-6	-38.985966
1.548625E-6	-38.989406
1.54867E-6	-39.385475
1.548715E-6	-41.399017
1.54876E-6	-46.552149
1.548805E-6	-56.225116
1.54885E-6	-64.605475
1.548895E-6	-71.26505
1.54894E-6	-76.0206
1.548985E-6	-78.005191
1.54903E-6	-76.583677
1.549075E-6	-70.978339
1.54912E-6	-55.547072
1.549165E-6	-44.655931
1.54921E-6	-40.664115
1.549255E-6	-39.233596
1.5493E-6	-38.931295
1.549345E-6	-38.894103
1.54939E-6	-38.877302
1.549435E-6	-38.944898
1.54948E-6	-39.500071
1.549525E-6	-41.979107
1.54957E-6	-47.6675
1.549615E-6	-57.687854
1.54966E-6	-65.738142
1.549705E-6	-72.108425
1.54975E-6	-76.595559
1.549795E-6	-78.181564
1.54984E-6	-75.62408
1.549885E-6	-69.408154
1.54993E-6	-53.154239
1.549975E-6	-43.538905
1.55002E-6	-40.227338
1.550065E-6	-39.182927
1.55011E-6	-38.972234
1.550155E-6	-38.955129
1.5502E-6	-38.961963
1.550245E-6	-39.017025
1.55029E-6	-39.742846
1.550335E-6	-42.553941
1.55038E-6	-49.240882
1.550425E-6	-59.880069
1.55047E-6	-67.166988
1.550515E-6	-73.363933
1.55056E-6	-76.857113
1.550605E-6	-77.731424
1.55065E-6	-74.943075
1.550695E-6	-66.066003
1.55074E-6	-50.839147
1.550785E-6	-42.67124
1.55083E-6	-39.858997
1.550875E-6	-39.062282
1.55092E-6	-38.87395
1.550965E-6	-38.867253
1.55101E-6	-38.87395
1.551055E-6	-38.979095
1.5511E-6	-40.036197
1.551145E-6	-43.478504
1.55119E-6	-50.823895
1.551235E-6	-61.951793
1.55128E-6	-68.706324
1.551325E-6	-74.480623
1.55137E-6	-77.219327
1.551415E-6	-77.18285
1.55146E-6	-74.101621
1.551505E-6	-64.042834
1.55155E-6	-49.136402
1.551595E-6	-42.142432
1.55164E-6	-39.730584
1.551685E-6	-39.129288
1.55173E-6	-39.013563
1.551775E-6	-39.017025
1.55182E-6	-39.003194
1.551865E-6	-39.143527
1.55191E-6	-40.552706
1.551955E-6	-44.592952
1.552E-6	-52.651202
1.552045E-6	-61.505192
1.55209E-6	-69.129288
1.552135E-6	-74.993519
1.55218E-6	-77.542406
1.552225E-6	-76.978856
1.55227E-6	-73.561527
1.552315E-6	-61.713401
1.55236E-6	-48.130437
1.552405E-6	-41.719849
1.55245E-6	-39.570309
1.552495E-6	-39.069287
1.55254E-6	-39.003194
1.552585E-6	-38.999743
1.55263E-6	-38.958544
1.552675E-6	-39.211808
1.55272E-6	-40.89856
1.552765E-6	-45.355105
1.55281E-6	-54.042834
1.552855E-6	-62.790968
1.5529E-6	-70.217282
1.552945E-6	-75.712175
1.55299E-6	-77.178312
1.553035E-6	-76.532559
1.55308E-6	-72.357491
1.553125E-6	-58.712777
1.55317E-6	-46.38839
1.553215E-6	-41.026479
1.55326E-6	-39.336741
1.553305E-6	-38.982529
1.55335E-6	-38.910969
1.553395E-6	-38.867253
1.55344E-6	-38.840568
1.553485E-6	-39.28118
1.55353E-6	-41.247651
1.553575E-6	-46.111886
1.55362E-6	-55.290018
1.553665E-6	-63.597174
1.55371E-6	-70.839674
1.553755E-6	-75.929492
1.5538E-6	-78.190144
1.553845E-6	-76.453154
1.55389E-6	-71.372725
1.553935E-6	-56.261689
1.55398E-6	-44.897232
1.554025E-6	-40.873529
1.55407E-6	-39.366666
1.554115E-6	-39.093893
1.55416E-6	-39.017025
1.554205E-6	-38.968807
1.55425E-6	-38.992849
1.554295E-6	-39.442395
1.55434E-6	-41.654521
1.554385E-6	-47.033348
1.55443E-6	-56.815193
1.554475E-6	-64.92819
1.55452E-6	-71.735365
1.554565E-6	-76.509168
1.55461E-6	-78.227522
1.554655E-6	-76.589614
1.5547E-6	-70.527134
1.554745E-6	-54.918745
1.55479E-6	-44.284076
1.554835E-6	-40.590355
1.55488E-6	-39.37418
1.554925E-6	-39.125735
1.55497E-6	-39.013563
1.555015E-6	-39.003194
1.55506E-6	-39.027427
1.555105E-6	-39.538952
1.55515E-6	-41.866192
1.555195E-6	-47.788467
1.55524E-6	-57.89414
1.555285E-6	-65.702477
1.55533E-6	-72.12327
1.555375E-6	-76.550186
1.55542E-6	-77.744323
1.555465E-6	-76.140364
1.55551E-6	-69.344203
1.555555E-6	-53.223018
1.5556E-6	-43.721223
1.555645E-6	-40.401957
1.55569E-6	-39.295927
1.555735E-6	-39.055289
1.55578E-6	-38.999743
1.555825E-6	-38.972234
1.55587E-6	-39.003194
1.555915E-6	-39.527251
1.55596E-6	-41.966795
1.556005E-6	-48.065971
1.55605E-6	-58.368386
1.556095E-6	-66.29672
1.55614E-6	-72.261404
1.556185E-6	-76.821455
1.55623E-6	-78.38632
1.556275E-6	-75.790546
1.55632E-6	-68.917733
1.556365E-6	-52.616952
1.55641E-6	-43.41321
1.556455E-6	-40.167798
1.5565E-6	-39.182927
1.556545E-6	-38.965384
1.55659E-6	-38.910969
1.556635E-6	-38.924509
1.55668E-6	-39.003194
1.556725E-6	-39.661743
1.55677E-6	-42.271651
1.556815E-6	-48.642315
1.55686E-6	-58.847224
1.556905E-6	-66.522798
1.55695E-6	-72.669633
1.556995E-6	-77.207895
1.55704E-6	-77.642191
1.557085E-6	-75.422695
1.55713E-6	-68.833923
1.557175E-6	-52.521223
1.55722E-6	-43.291977
1.557265E-6	-40.12915
1.55731E-6	-39.118639
1.557355E-6	-38.894103
1.5574E-6	-38.827287
1.557445E-6	-38.833923
1.55749E-6	-38.900841
1.557535E-6	-39.613798
1.55758E-6	-42.410881
1.557625E-6	-48.716007
1.55767E-6	-59.609827
1.557715E-6	-67.194216
1.55776E-6	-72.992098
1.557805E-6	-77.478754
1.55785E-6	-77.435228
1.557895E-6	-75.517576
1.55794E-6	-68.282735
1.557985E-6	-51.894315
1.55803E-6	-43.132744
1.558075E-6	-40.095279
1.55812E-6	-39.08333
1.558165E-6	-38.877302
1.55821E-6	-38.880657
1.558255E-6	-38.90759
1.5583E-6	-38.955129
1.558345E-6	-39.665762
1.55839E-6	-42.451931
1.558435E-6	-49.065783
1.55848E-6	-59.262816
1.558525E-6	-66.907958
1.55857E-6	-72.711594
1.558615E-6	-77.242281
1.55866E-6	-78.074325
1.558705E-6	-75.506759
1.55875E-6	-68.59492
1.558795E-6	-52.420728
1.55884E-6	-43.332013
1.558885E-6	-40.146634
1.55893E-6	-39.111554
1.558975E-6	-38.951716
1.55902E-6	-38.941493
1.559065E-6	-38.948306
1.55911E-6	-39.020489
1.559155E-6	-39.763361
1.5592E-6	-42.498003
1.559245E-6	-49.097419
1.55929E-6	-59.503944
1.559335E-6	-67.117508
1.55938E-6	-73.09007
1.559425E-6	-77.342391
1.55947E-6	-78.164455
1.559515E-6	-75.641556
1.55956E-6	-68.941493
1.559605E-6	-52.67365
1.55965E-6	-43.49984
1.559695E-6	-40.192696
1.55974E-6	-39.143527
1.559785E-6	-38.989406
1.55983E-6	-39.006647
1.559875E-6	-39.072794
1.55992E-6	-39.122186
1.559965E-6	-39.892761
1.56001E-6	-42.710784
1.560055E-6	-48.931295
1.5601E-6	-59.92679
1.560145E-6	-67.235382
1.56019E-6	-73.139002
1.560235E-6	-77.117508
1.56028E-6	-78.065971
1.560325E-6	-75.700863
1.56037E-6	-68.857227
1.560415E-6	-52.530546
1.56046E-6	-43.202996
1.560505E-6	-39.982663
1.56055E-6	-38.979095
1.560595E-6	-38.860566
1.56064E-6	-38.87395
1.560685E-6	-38.880657
1.56073E-6	-38.989406
1.560775E-6	-39.726504
1.56082E-6	-42.436682
1.560865E-6	-48.941493
1.56091E-6	-59.277501
1.560955E-6	-66.842395
1.561E-6	-72.928558
1.561045E-6	-77.279262
1.56109E-6	-78.002448
1.561135E-6	-75.512937
1.56118E-6	-69.511699
1.561225E-6	-53.410352
1.56127E-6	-43.544795
1.561315E-6	-40.096167
1.56136E-6	-39.0309
1.561405E-6	-38.860566
1.56145E-6	-38.880657
1.561495E-6	-38.951716
1.56154E-6	-39.017025
1.561585E-6	-39.657727
1.56163E-6	-42.262867
1.561675E-6	-48.517059
1.56172E-6	-58.722475
1.561765E-6	-66.35449
1.56181E-6	-72.727028
1.561855E-6	-76.907958
1.5619E-6	-78.526329
1.561945E-6	-76.491707
1.56199E-6	-70.700704
1.562035E-6	-55.026556
1.56208E-6	-44.096041
1.562125E-6	-40.292348
1.56217E-6	-39.034376
1.562215E-6	-38.843895
1.56226E-6	-38.867253
1.562305E-6	-38.910969
1.56235E-6	-39.0309
1.562395E-6	-39.538952
1.56244E-6	-41.828314
1.562485E-6	-47.335331
1.56253E-6	-57.356545
1.562575E-6	-65.272436
1.56262E-6	-71.951793
1.562665E-6	-76.899443
1.56271E-6	-78.147412
1.562755E-6	-76.74895
1.5628E-6	-71.528594
1.562845E-6	-56.691805
1.56289E-6	-44.686488
1.562935E-6	-40.574959
1.56298E-6	-39.104481
1.563025E-6	-38.8706
1.56307E-6	-38.894103
1.563115E-6	-38.975663
1.56316E-6	-39.08333
1.563205E-6	-39.538952
1.56325E-6	-41.571412
1.563295E-6	-46.840297
1.56334E-6	-56.516951
1.563385E-6	-64.568014
1.56343E-6	-71.383461
1.563475E-6	-76.567884
