Wavelength (nm)	Power (dBm)
1.525E-6	-71.835598
1.525045E-6	-71.976368
1.52509E-6	-72.371714
1.525135E-6	-74.581712
1.52518E-6	-79.023957
1.525225E-6	-83.203904
1.52527E-6	-87.864822
1.525315E-6	-86.34512
1.52536E-6	-87.767637
1.525405E-6	-81.469714
1.52545E-6	-83.463052
1.525495E-6	-77.130946
1.52554E-6	-73.309622
1.525585E-6	-71.270284
1.52563E-6	-70.720653
1.525675E-6	-70.57149
1.52572E-6	-70.393865
1.525765E-6	-70.152027
1.52581E-6	-70.006954
1.525855E-6	-70.407678
1.5259E-6	-72.010733
1.525945E-6	-75.810362
1.52599E-6	-80.113519
1.526035E-6	-85.303252
1.52608E-6	-86.212388
1.526125E-6	-86.133227
1.52617E-6	-88.091083
1.526215E-6	-84.281748
1.52626E-6	-78.428456
1.526305E-6	-72.397283
1.52635E-6	-70.055949
1.526395E-6	-69.273825
1.52644E-6	-69.048306
1.526485E-6	-68.92112
1.52653E-6	-68.900841
1.526575E-6	-68.934691
1.52662E-6	-68.979095
1.526665E-6	-70.147083
1.52671E-6	-73.272558
1.526755E-6	-78.407337
1.5268E-6	-83.199366
1.526845E-6	-87.066374
1.52689E-6	-88.820662
1.526935E-6	-86.703988
1.52698E-6	-85.400047
1.527025E-6	-79.175737
1.52707E-6	-72.210533
1.527115E-6	-69.270153
1.52716E-6	-68.147412
1.527205E-6	-67.822529
1.52725E-6	-67.796304
1.527295E-6	-67.685304
1.52734E-6	-67.675121
1.527385E-6	-67.728849
1.52743E-6	-68.604357
1.527475E-6	-71.104182
1.52752E-6	-75.982549
1.527565E-6	-81.16225
1.52761E-6	-88.44664
1.527655E-6	-86.394066
1.5277E-6	-86.19427
1.527745E-6	-86.027554
1.52779E-6	-80.850754
1.527835E-6	-72.536772
1.52788E-6	-68.728952
1.527925E-6	-67.281584
1.52797E-6	-66.823545
1.528015E-6	-66.777807
1.52806E-6	-66.815193
1.528105E-6	-66.794383
1.52815E-6	-66.753061
1.528195E-6	-67.274622
1.52824E-6	-69.381707
1.528285E-6	-73.411304
1.52833E-6	-78.41336
1.528375E-6	-84.800408
1.52842E-6	-88.422411
1.528465E-6	-85.508303
1.52851E-6	-86.276404
1.528555E-6	-82.193947
1.5286E-6	-73.558569
1.528645E-6	-68.924509
1.52869E-6	-66.815193
1.528735E-6	-66.239708
1.52878E-6	-66.080069
1.528825E-6	-66.078309
1.52887E-6	-66.053732
1.528915E-6	-66.027554
1.52896E-6	-66.328305
1.529005E-6	-67.956087
1.52905E-6	-71.185012
1.529095E-6	-77.542406
1.52914E-6	-83.282719
1.529185E-6	-85.81533
1.52923E-6	-84.391373
1.529275E-6	-87.151183
1.52932E-6	-84.404524
1.529365E-6	-75.045944
1.52941E-6	-69.496202
1.529455E-6	-66.66956
1.5295E-6	-65.826944
1.529545E-6	-65.595632
1.52959E-6	-65.587763
1.529635E-6	-65.543958
1.52968E-6	-65.474469
1.529725E-6	-65.704092
1.52977E-6	-66.635403
1.529815E-6	-69.535048
1.52986E-6	-74.19075
1.529905E-6	-79.37418
1.52995E-6	-86.487837
1.529995E-6	-87.064165
1.53004E-6	-89.266483
1.530085E-6	-83.99136
1.53013E-6	-79.423339
1.530175E-6	-70.541869
1.53022E-6	-66.819367
1.530265E-6	-65.643149
1.53031E-6	-65.272436
1.530355E-6	-65.208568
1.5304E-6	-65.198493
1.530445E-6	-65.15131
1.53049E-6	-65.236032
1.530535E-6	-65.75445
1.53058E-6	-67.964232
1.530625E-6	-71.747037
1.53067E-6	-78.784402
1.530715E-6	-82.954206
1.53076E-6	-85.924392
1.530805E-6	-87.996968
1.53085E-6	-86.88458
1.530895E-6	-81.385851
1.53094E-6	-72.401056
1.530985E-6	-67.508016
1.53103E-6	-65.625666
1.531075E-6	-65.100415
1.53112E-6	-64.975729
1.531165E-6	-64.999008
1.53121E-6	-64.997635
1.531255E-6	-64.949858
1.5313E-6	-65.332806
1.531345E-6	-66.794383
1.53139E-6	-70.045842
1.531435E-6	-75.949953
1.53148E-6	-81.556471
1.531525E-6	-86.395959
1.53157E-6	-84.052761
1.531615E-6	-84.694161
1.53166E-6	-86.724367
1.531705E-6	-74.551881
1.53175E-6	-69.125735
1.531795E-6	-66.118988
1.53184E-6	-65.22734
1.531885E-6	-65.087784
1.53193E-6	-65.004504
1.531975E-6	-65.040396
1.53202E-6	-65.027938
1.532065E-6	-65.168408
1.53211E-6	-66.053732
1.532155E-6	-68.787685
1.5322E-6	-73.123819
1.532245E-6	-78.677403
1.53229E-6	-85.295895
1.532335E-6	-86.27088
1.53238E-6	-84.993519
1.532425E-6	-85.867002
1.53247E-6	-79.590023
1.532515E-6	-71.260984
1.53256E-6	-66.9897
1.532605E-6	-65.547072
1.53265E-6	-65.199931
1.532695E-6	-65.179844
1.53274E-6	-65.157002
1.532785E-6	-65.147046
1.53283E-6	-65.147046
1.532875E-6	-65.75445
1.53292E-6	-67.662426
1.532965E-6	-71.241866
1.53301E-6	-77.809397
1.533055E-6	-81.868862
1.5331E-6	-84.330913
1.533145E-6	-85.364056
1.53319E-6	-88.27689
1.533235E-6	-83.948027
1.53328E-6	-74.450265
1.533325E-6	-68.934691
1.53337E-6	-66.401645
1.533415E-6	-65.699249
1.53346E-6	-65.581478
1.533505E-6	-65.595632
1.53355E-6	-65.687971
1.533595E-6	-65.764265
1.53364E-6	-65.938006
1.533685E-6	-67.137681
1.53373E-6	-69.817157
1.533775E-6	-75.249102
1.53382E-6	-79.956786
1.533865E-6	-84.826721
1.53391E-6	-87.559704
1.533955E-6	-87.406451
1.534E-6	-85.998075
1.534045E-6	-79.310724
1.53409E-6	-71.604591
1.534135E-6	-67.75726
1.53418E-6	-66.583677
1.534225E-6	-66.278247
1.53427E-6	-66.300424
1.534315E-6	-66.322715
1.53436E-6	-66.35449
1.534405E-6	-66.392173
1.53445E-6	-67.099654
1.534495E-6	-69.157813
1.53454E-6	-72.863415
1.534585E-6	-77.972393
1.53463E-6	-83.926522
1.534675E-6	-87.128704
1.53472E-6	-89.037854
1.534765E-6	-86.422557
1.53481E-6	-83.590219
1.534855E-6	-74.86516
1.5349E-6	-69.901244
1.534945E-6	-67.547342
1.53499E-6	-67.028963
1.535035E-6	-66.961562
1.53508E-6	-66.994045
1.535125E-6	-67.095202
1.53517E-6	-66.994045
1.535215E-6	-67.344747
1.53526E-6	-68.712777
1.535305E-6	-71.540342
1.53535E-6	-77.221617
1.535395E-6	-81.446626
1.53544E-6	-85.332806
1.535485E-6	-86.160052
1.53553E-6	-86.104795
1.535575E-6	-83.930815
1.53562E-6	-80.161934
1.535665E-6	-72.526659
1.53571E-6	-69.086848
1.535755E-6	-67.830428
1.5358E-6	-67.629592
1.535845E-6	-67.607005
1.53589E-6	-67.700623
1.535935E-6	-67.767637
1.53598E-6	-67.833064
1.536025E-6	-68.437538
1.53607E-6	-70.412928
1.536115E-6	-74.752146
1.53616E-6	-79.905491
1.536205E-6	-84.949858
1.53625E-6	-85.670307
1.536295E-6	-87.592012
1.53634E-6	-86.281935
1.536385E-6	-83.783045
1.53643E-6	-75.759355
1.536475E-6	-71.07071
1.53652E-6	-68.900841
1.536565E-6	-68.332739
1.53661E-6	-68.239087
1.536655E-6	-68.279812
1.5367E-6	-68.241984
1.536745E-6	-68.309136
1.53679E-6	-68.566729
1.536835E-6	-69.681877
1.53688E-6	-72.731099
1.536925E-6	-78.703101
1.53697E-6	-82.786841
1.537015E-6	-86.111886
1.53706E-6	-84.623068
1.537105E-6	-90.22505
1.53715E-6	-87.634627
1.537195E-6	-80.415317
1.53724E-6	-73.373366
1.537285E-6	-70.093948
1.53733E-6	-68.847224
1.537375E-6	-68.569852
1.53742E-6	-68.548036
1.537465E-6	-68.626459
1.53751E-6	-68.541823
1.537555E-6	-68.674202
1.5376E-6	-69.219058
1.537645E-6	-71.159981
1.53769E-6	-75.394028
1.537735E-6	-79.846402
1.53778E-6	-85.953373
1.537825E-6	-87.281584
1.53787E-6	-86.972363
1.537915E-6	-86.784016
1.53796E-6	-85.606673
1.538005E-6	-76.42637
1.53805E-6	-71.739252
1.538095E-6	-69.535048
1.53814E-6	-68.863908
1.538185E-6	-68.768019
1.53823E-6	-68.690233
1.538275E-6	-68.761484
1.53832E-6	-68.754958
1.538365E-6	-68.975663
1.53841E-6	-69.995659
1.538455E-6	-72.885302
1.5385E-6	-78.53252
1.538545E-6	-82.908149
1.53859E-6	-87.113037
1.538635E-6	-85.547072
1.53868E-6	-85.181276
1.538725E-6	-86.140364
1.53877E-6	-80.840728
1.538815E-6	-73.783045
1.53886E-6	-70.462403
1.538905E-6	-69.041335
1.53895E-6	-68.735439
1.538995E-6	-68.745187
1.53904E-6	-68.601209
1.539085E-6	-68.632794
1.53913E-6	-68.748442
1.539175E-6	-69.219058
1.53922E-6	-70.966387
1.539265E-6	-74.869156
1.53931E-6	-79.689957
1.539355E-6	-84.89455
1.5394E-6	-84.992148
1.539445E-6	-86.294869
1.53949E-6	-86.26904
1.539535E-6	-85.25638
1.53958E-6	-76.575773
1.539625E-6	-71.608363
1.53967E-6	-69.389247
1.539715E-6	-68.674202
1.53976E-6	-68.526329
1.539805E-6	-68.501653
1.53985E-6	-68.520147
1.539895E-6	-68.483238
1.53994E-6	-68.566729
1.539985E-6	-69.637705
1.54003E-6	-72.332155
1.540075E-6	-78.404328
1.54012E-6	-82.564118
1.540165E-6	-81.91654
1.54021E-6	-84.614263
1.540255E-6	-86.3865
1.5403E-6	-87.77804
1.540345E-6	-81.136221
1.54039E-6	-73.853137
1.540435E-6	-70.330608
1.54048E-6	-68.814046
1.540525E-6	-68.350526
1.54057E-6	-68.259402
1.540615E-6	-68.309136
1.54066E-6	-68.204482
1.540705E-6	-68.273971
1.54075E-6	-68.557372
1.540795E-6	-70.100165
1.54084E-6	-73.843655
1.540885E-6	-78.830604
1.54093E-6	-83.651199
1.540975E-6	-87.031155
1.54102E-6	-86.309698
1.541065E-6	-84.732731
1.54111E-6	-84.444219
1.541155E-6	-78.461851
1.5412E-6	-72.010733
1.541245E-6	-69.219058
1.54129E-6	-68.250684
1.541335E-6	-67.947956
1.54138E-6	-67.918275
1.541425E-6	-67.899492
1.54147E-6	-67.878124
1.541515E-6	-67.910215
1.54156E-6	-68.728952
1.541605E-6	-70.984872
1.54165E-6	-75.529971
1.541695E-6	-80.898026
1.54174E-6	-85.422695
1.541785E-6	-89.211808
1.54183E-6	-88.623295
1.541875E-6	-87.10634
1.54192E-6	-83.078584
1.541965E-6	-74.570502
1.54201E-6	-70.387213
1.542055E-6	-68.461851
1.5421E-6	-67.862167
1.542145E-6	-67.68021
1.54219E-6	-67.6675
1.542235E-6	-67.785858
1.54228E-6	-67.629592
1.542325E-6	-67.880789
1.54237E-6	-69.262816
1.542415E-6	-72.227182
1.54246E-6	-78.224635
1.542505E-6	-82.164537
1.54255E-6	-84.206738
1.542595E-6	-87.157949
1.54264E-6	-86.487837
1.542685E-6	-86.722325
1.54273E-6	-80.233749
1.542775E-6	-72.49029
1.54282E-6	-69.168559
1.542865E-6	-67.796304
1.54291E-6	-67.537477
1.542955E-6	-67.498241
1.543E-6	-67.594508
1.543045E-6	-67.4958
1.54309E-6	-67.552282
1.543135E-6	-68.029953
1.54318E-6	-69.863203
1.543225E-6	-73.774751
1.54327E-6	-79.767475
1.543315E-6	-83.000756
1.54336E-6	-84.92414
1.543405E-6	-87.93714
1.54345E-6	-85.52222
1.543495E-6	-84.241197
1.54354E-6	-76.167233
1.543585E-6	-71.145822
1.54363E-6	-68.425432
1.543675E-6	-67.47147
1.54372E-6	-67.483618
1.543765E-6	-67.361273
1.54381E-6	-67.404061
1.543855E-6	-67.413627
1.5439E-6	-67.478754
1.543945E-6	-68.38632
1.54399E-6	-70.950141
1.544035E-6	-75.525319
1.54408E-6	-80.402433
1.544125E-6	-83.557584
1.54417E-6	-86.599527
1.544215E-6	-87.119745
1.54426E-6	-85.55799
1.544305E-6	-81.920593
1.54435E-6	-74.066032
1.544395E-6	-69.593977
1.54444E-6	-67.71343
1.544485E-6	-67.328283
1.54453E-6	-67.340036
1.544575E-6	-67.340036
1.54462E-6	-67.337683
1.544665E-6	-67.212464
1.54471E-6	-67.535014
1.544755E-6	-68.996295
1.5448E-6	-71.977053
1.544845E-6	-77.233085
1.54489E-6	-80.563571
1.544935E-6	-81.811805
1.54498E-6	-80.646439
1.545025E-6	-74.918745
1.54507E-6	-67.108572
1.545115E-6	-53.907258
1.54516E-6	-39.982663
1.545205E-6	-35.011383
1.54525E-6	-32.826624
1.545295E-6	-32.30106
1.54534E-6	-32.180293
1.545385E-6	-32.167398
1.54543E-6	-32.19035
1.545475E-6	-32.540668
1.54552E-6	-34.49894
1.545565E-6	-39.381707
1.54561E-6	-48.486301
1.545655E-6	-59.75925
1.5457E-6	-66.380834
1.545745E-6	-72.222833
1.54579E-6	-77.189666
1.545835E-6	-79.918258
1.54588E-6	-81.570165
1.545925E-6	-76.067759
1.54597E-6	-70.73812
1.546015E-6	-68.268137
1.54606E-6	-67.272304
1.546105E-6	-67.189666
1.54615E-6	-67.166988
1.546195E-6	-67.092978
1.54624E-6	-67.135435
1.546285E-6	-67.279262
1.54633E-6	-68.204482
1.546375E-6	-70.315638
1.54642E-6	-74.775558
1.546465E-6	-80.006084
1.54651E-6	-84.549404
1.546555E-6	-84.22738
1.5466E-6	-88.013429
1.546645E-6	-86.201508
1.54669E-6	-81.735365
1.546735E-6	-74.497716
1.54678E-6	-69.943906
1.546825E-6	-67.840982
1.54687E-6	-67.228494
1.546915E-6	-67.108572
1.54696E-6	-67.196493
1.547005E-6	-67.101882
1.54705E-6	-67.066374
1.547095E-6	-67.418418
1.54714E-6	-68.725712
1.547185E-6	-71.343039
1.54723E-6	-76.808939
1.547275E-6	-81.018784
1.54732E-6	-84.949858
1.547365E-6	-85.948245
1.54741E-6	-85.878756
1.547455E-6	-85.313573
1.5475E-6	-81.081282
1.547545E-6	-72.728656
1.54759E-6	-69.111554
1.547635E-6	-67.537477
1.54768E-6	-67.153437
1.547725E-6	-67.057543
1.54777E-6	-67.075224
1.547815E-6	-67.126462
1.54786E-6	-67.164726
1.547905E-6	-67.577071
1.54795E-6	-69.037854
1.547995E-6	-72.334384
1.54804E-6	-78.604357
1.548085E-6	-82.571963
1.54813E-6	-83.896593
1.548175E-6	-84.42132
1.54822E-6	-89.75104
1.548265E-6	-87.349462
1.54831E-6	-78.843895
1.548355E-6	-71.701176
1.5484E-6	-68.59492
1.548445E-6	-67.384992
1.54849E-6	-67.166988
1.548535E-6	-67.046529
1.54858E-6	-67.135435
1.548625E-6	-67.124222
1.54867E-6	-67.101882
1.548715E-6	-67.8199
1.54876E-6	-69.702105
1.548805E-6	-73.514448
1.54885E-6	-78.410347
1.548895E-6	-83.13185
1.54894E-6	-85.683147
1.548985E-6	-85.036239
1.54903E-6	-85.029321
1.549075E-6	-83.650192
1.54912E-6	-76.317131
1.549165E-6	-70.853396
1.54921E-6	-68.265224
1.549255E-6	-67.309543
1.5493E-6	-67.124222
1.549345E-6	-67.108572
1.54939E-6	-67.126462
1.549435E-6	-67.064165
1.54948E-6	-67.203331
1.549525E-6	-68.002448
1.54957E-6	-70.092173
1.549615E-6	-74.586704
1.54966E-6	-79.027427
1.549705E-6	-81.503963
1.54975E-6	-81.279603
1.549795E-6	-78.164455
1.54984E-6	-71.016588
1.549885E-6	-62.333641
1.54993E-6	-46.679657
1.549975E-6	-36.771607
1.55002E-6	-33.429441
1.550065E-6	-32.204035
1.55011E-6	-31.999018
1.550155E-6	-31.948391
1.5502E-6	-31.9382
1.550245E-6	-32.001083
1.55029E-6	-32.731099
1.550335E-6	-35.559552
1.55038E-6	-41.52119
1.550425E-6	-52.814153
1.55047E-6	-61.58578
1.550515E-6	-68.992849
1.55056E-6	-74.478187
1.550605E-6	-78.857227
1.55065E-6	-81.301818
1.550695E-6	-79.767475
1.55074E-6	-73.371478
1.550785E-6	-69.41574
1.55083E-6	-67.375489
1.550875E-6	-67.079656
1.55092E-6	-66.948637
1.550965E-6	-66.918626
1.55101E-6	-66.972363
1.551055E-6	-67.022395
1.5511E-6	-67.249191
1.551145E-6	-68.443604
1.55119E-6	-71.100823
1.551235E-6	-76.38461
1.55128E-6	-81.976368
1.551325E-6	-85.955084
1.55137E-6	-87.624563
1.551415E-6	-84.800408
1.55146E-6	-83.593198
1.551505E-6	-80.72527
1.55155E-6	-72.461107
1.551595E-6	-68.827287
1.55164E-6	-67.290884
1.551685E-6	-66.819367
1.55173E-6	-66.819367
1.551775E-6	-66.873996
1.55182E-6	-66.899443
1.551865E-6	-66.85922
1.55191E-6	-67.185121
1.551955E-6	-68.626459
1.552E-6	-71.756789
1.552045E-6	-77.90485
1.55209E-6	-81.519341
1.552135E-6	-85.207127
1.55218E-6	-85.021033
1.552225E-6	-84.581712
1.55227E-6	-84.600462
1.552315E-6	-78.857227
1.55236E-6	-71.864857
1.552405E-6	-68.38632
1.55245E-6	-67.113037
1.552495E-6	-66.842395
1.55254E-6	-66.815193
1.552585E-6	-66.769543
1.55263E-6	-66.819367
1.552675E-6	-66.792308
1.55272E-6	-67.274622
1.552765E-6	-69.010104
1.55281E-6	-72.487979
1.552855E-6	-78.398317
1.5529E-6	-83.441895
1.552945E-6	-86.118988
1.55299E-6	-86.081831
1.553035E-6	-83.851028
1.55308E-6	-86.188849
1.553125E-6	-75.873715
1.55317E-6	-71.015491
1.553215E-6	-68.032713
1.55326E-6	-66.857113
1.553305E-6	-66.693833
1.55335E-6	-66.615435
1.553395E-6	-66.595559
1.55344E-6	-66.587634
1.553485E-6	-66.635403
1.55353E-6	-67.263044
1.553575E-6	-69.442395
1.55362E-6	-73.014645
1.553665E-6	-78.904215
1.55371E-6	-82.914092
1.553755E-6	-86.252517
1.5538E-6	-85.70894
1.553845E-6	-85.312097
1.55389E-6	-83.18397
1.553935E-6	-75.900669
1.55398E-6	-70.340931
1.554025E-6	-67.597004
1.55407E-6	-66.792308
1.554115E-6	-66.569855
1.55416E-6	-66.53647
1.554205E-6	-66.499459
1.55425E-6	-66.513058
1.554295E-6	-66.655462
1.55434E-6	-67.366007
1.554385E-6	-69.527251
1.55443E-6	-73.647174
1.554475E-6	-79.621752
1.55452E-6	-82.734358
1.554565E-6	-86.513058
1.55461E-6	-85.44546
1.554655E-6	-87.295541
1.5547E-6	-84.48428
1.554745E-6	-75.05011
1.55479E-6	-69.867413
1.554835E-6	-67.316561
1.55488E-6	-66.567884
1.554925E-6	-66.472388
1.55497E-6	-66.413039
1.555015E-6	-66.447401
1.55506E-6	-66.343249
1.555105E-6	-66.548224
1.55515E-6	-67.330631
1.555195E-6	-69.649707
1.55524E-6	-74.231981
1.555285E-6	-79.122186
1.55533E-6	-83.41321
1.555375E-6	-84.350973
1.55542E-6	-85.491353
1.555465E-6	-87.454519
1.55551E-6	-83.198459
1.555555E-6	-74.386601
1.5556E-6	-69.554602
1.555645E-6	-67.070797
1.55569E-6	-66.377061
1.555735E-6	-66.397854
1.55578E-6	-66.358244
1.555825E-6	-66.35074
1.55587E-6	-66.313413
1.555915E-6	-66.491707
1.55596E-6	-67.380238
1.556005E-6	-69.722428
1.55605E-6	-74.299243
1.556095E-6	-79.554602
1.55614E-6	-83.183066
1.556185E-6	-84.813545
1.55623E-6	-86.069515
1.556275E-6	-86.208759
1.55632E-6	-83.411304
1.556365E-6	-74.068247
1.55641E-6	-69.370422
1.556455E-6	-66.972363
1.5565E-6	-66.377061
1.556545E-6	-66.36388
1.55659E-6	-66.276404
1.556635E-6	-66.29672
1.55668E-6	-66.317131
1.556725E-6	-66.534514
1.55677E-6	-67.456937
1.556815E-6	-69.726504
1.55686E-6	-74.666093
1.556905E-6	-79.726504
1.55695E-6	-84.986668
1.556995E-6	-87.430418
1.55704E-6	-85.318004
1.557085E-6	-85.775743
1.55713E-6	-83.192114
1.557175E-6	-73.679478
1.55722E-6	-69.104481
1.557265E-6	-66.937895
1.55731E-6	-66.420652
1.557355E-6	-66.360122
1.5574E-6	-66.375175
1.557445E-6	-66.322715
1.55749E-6	-66.346993
1.557535E-6	-66.478175
1.55758E-6	-67.394516
1.557625E-6	-69.871628
1.55767E-6	-74.739193
1.557715E-6	-79.734667
1.55776E-6	-84.029633
1.557805E-6	-87.253804
1.55785E-6	-86.167233
1.557895E-6	-86.493644
1.55794E-6	-82.288537
1.557985E-6	-74.282912
1.55803E-6	-69.013563
1.558075E-6	-67.002748
1.55812E-6	-66.466609
1.558165E-6	-66.411138
1.55821E-6	-66.36388
1.558255E-6	-66.358244
1.5583E-6	-66.40544
1.558345E-6	-66.516951
1.55839E-6	-67.564659
1.558435E-6	-70.026136
1.55848E-6	-74.913356
1.558525E-6	-79.901244
1.55857E-6	-85.168408
1.558615E-6	-84.403327
1.55866E-6	-85.692801
1.558705E-6	-87.910215
1.55875E-6	-83.025091
1.558795E-6	-73.898724
1.55884E-6	-69.193735
1.558885E-6	-67.086311
1.55893E-6	-66.645421
1.558975E-6	-66.552149
1.55902E-6	-66.538427
1.559065E-6	-66.607474
1.55911E-6	-66.534514
1.559155E-6	-66.699923
1.5592E-6	-67.749493
1.559245E-6	-70.103278
1.55929E-6	-74.951215
1.559335E-6	-80.216825
1.55938E-6	-84.179366
1.559425E-6	-86.003263
1.55947E-6	-85.349147
1.559515E-6	-85.542402
1.55956E-6	-83.046935
1.559605E-6	-74.063817
1.55965E-6	-69.473061
1.559695E-6	-67.217038
1.55974E-6	-66.827727
1.559785E-6	-66.79646
1.55983E-6	-66.744843
1.559875E-6	-66.763355
1.55992E-6	-66.844495
1.559965E-6	-66.957249
1.56001E-6	-67.864822
1.560055E-6	-70.324988
1.5601E-6	-75.188441
1.560145E-6	-79.858997
1.56019E-6	-85.595632
1.560235E-6	-87.121983
1.56028E-6	-87.980569
1.560325E-6	-83.534982
1.56037E-6	-84.218194
1.560415E-6	-74.404524
1.56046E-6	-69.969705
1.560505E-6	-67.682756
1.56055E-6	-67.153437
1.560595E-6	-67.110804
1.56064E-6	-67.009287
1.560685E-6	-67.117508
1.56073E-6	-67.135435
1.560775E-6	-67.281584
1.56082E-6	-68.233301
1.560865E-6	-70.445047
1.56091E-6	-75.731635
1.560955E-6	-80.75669
1.561E-6	-83.755116
1.561045E-6	-85.472938
1.56109E-6	-85.774102
1.561135E-6	-86.458916
1.56118E-6	-82.208366
1.561225E-6	-75.465288
1.56127E-6	-70.531549
1.561315E-6	-68.315025
1.56136E-6	-67.604503
1.561405E-6	-67.413627
1.56145E-6	-67.47147
1.561495E-6	-67.486051
1.56154E-6	-67.542406
1.561585E-6	-67.649768
1.56163E-6	-68.474059
1.561675E-6	-70.799811
1.56172E-6	-75.174122
1.561765E-6	-80
1.56181E-6	-83.361107
1.561855E-6	-87.801536
1.5619E-6	-87.759852
1.561945E-6	-86.283781
1.56199E-6	-85.505216
1.562035E-6	-76.280091
1.56208E-6	-71.215931
1.562125E-6	-68.894103
1.56217E-6	-68.107905
1.562215E-6	-67.809397
1.56226E-6	-67.891466
1.562305E-6	-67.880789
1.56235E-6	-68.016179
1.562395E-6	-68.158766
1.56244E-6	-68.703101
1.562485E-6	-70.777937
1.56253E-6	-75.033471
1.562575E-6	-79.909743
1.56262E-6	-83.421795
1.562665E-6	-85.303252
1.56271E-6	-86.571827
1.562755E-6	-85.294425
1.5628E-6	-85.199931
1.562845E-6	-78.544928
1.56289E-6	-72.248266
1.562935E-6	-69.419538
1.56298E-6	-68.645493
1.563025E-6	-68.4649
1.56307E-6	-68.401322
1.563115E-6	-68.41336
1.56316E-6	-68.810742
1.563205E-6	-68.576105
1.56325E-6	-69.161392
1.563295E-6	-70.949601
1.56334E-6	-75.392525
1.563385E-6	-79.858997
1.56343E-6	-84.925489
1.563475E-6	-87.31422
