Wavelength (nm)	Power (dBm)
1.525E-6	-50.088626
1.525045E-6	-49.982663
1.52509E-6	-50.142593
1.525135E-6	-50.73812
1.52518E-6	-51.407416
1.525225E-6	-51.665979
1.52527E-6	-51.648169
1.525315E-6	-51.583277
1.52536E-6	-51.509493
1.525405E-6	-51.429088
1.52545E-6	-51.164521
1.525495E-6	-50.275195
1.52554E-6	-49.093893
1.525585E-6	-48.315025
1.52563E-6	-47.994231
1.525675E-6	-47.801536
1.52572E-6	-47.607005
1.525765E-6	-47.418418
1.52581E-6	-47.269987
1.525855E-6	-47.435228
1.5259E-6	-48.285661
1.525945E-6	-49.601894
1.52599E-6	-50.359762
1.526035E-6	-50.487111
1.52608E-6	-50.459506
1.526125E-6	-50.39339
1.52617E-6	-50.327329
1.526215E-6	-50.075349
1.52626E-6	-48.9279
1.526305E-6	-47.223908
1.52635E-6	-45.955084
1.526395E-6	-45.550189
1.52644E-6	-45.335773
1.526485E-6	-45.199931
1.52653E-6	-45.080783
1.526575E-6	-44.992148
1.52662E-6	-45.15131
1.526665E-6	-46.118988
1.52671E-6	-47.896815
1.526755E-6	-49.211808
1.5268E-6	-49.531148
1.526845E-6	-49.538952
1.52689E-6	-49.488475
1.526935E-6	-49.442395
1.52698E-6	-49.211808
1.527025E-6	-47.843624
1.52707E-6	-45.462231
1.527115E-6	-43.945872
1.52716E-6	-43.370534
1.527205E-6	-43.174037
1.52725E-6	-43.066248
1.527295E-6	-42.931116
1.52734E-6	-42.842473
1.527385E-6	-42.934529
1.52743E-6	-43.832095
1.527475E-6	-45.861975
1.52752E-6	-47.961515
1.527565E-6	-48.784402
1.52761E-6	-48.887375
1.527655E-6	-48.847224
1.5277E-6	-48.790972
1.527745E-6	-48.671002
1.52779E-6	-47.430418
1.527835E-6	-44.696722
1.52788E-6	-42.66161
1.527925E-6	-41.86953
1.52797E-6	-41.636759
1.528015E-6	-41.537248
1.52806E-6	-41.47581
1.528105E-6	-41.44602
1.52815E-6	-41.465452
1.528195E-6	-42.142432
1.52824E-6	-43.977229
1.528285E-6	-46.703988
1.52833E-6	-48.201611
1.528375E-6	-48.477117
1.52842E-6	-48.428456
1.528465E-6	-48.241984
1.52851E-6	-47.223908
1.528555E-6	-41.503349
1.5286E-6	-28.639139
1.528645E-6	-21.189579
1.52869E-6	-18.068754
1.528735E-6	-17.099654
1.52878E-6	-16.855008
1.528825E-6	-16.73869
1.52887E-6	-16.637404
1.528915E-6	-16.759234
1.52896E-6	-18.227522
1.529005E-6	-22.352263
1.52905E-6	-31.074602
1.529095E-6	-40.41962
1.52914E-6	-46.036263
1.529185E-6	-47.75208
1.52923E-6	-48.08549
1.529275E-6	-47.718564
1.52932E-6	-45.388017
1.529365E-6	-32.724587
1.52941E-6	-23.004224
1.529455E-6	-19.041335
1.5295E-6	-17.459355
1.529545E-6	-17.10634
1.52959E-6	-17.004927
1.529635E-6	-16.933606
1.52968E-6	-16.950788
1.529725E-6	-17.81202
1.52977E-6	-20.82547
1.529815E-6	-27.910215
1.52986E-6	-38.410347
1.529905E-6	-44.87449
1.52995E-6	-47.464197
1.529995E-6	-48.06041
1.53004E-6	-47.929045
1.530085E-6	-46.667543
1.53013E-6	-38.335699
1.530175E-6	-25.249102
1.53022E-6	-20.062552
1.530265E-6	-17.891466
1.53031E-6	-17.316561
1.530355E-6	-17.16925
1.5304E-6	-17.10634
1.530445E-6	-17.075224
1.53049E-6	-17.449688
1.530535E-6	-19.465374
1.53058E-6	-24.534573
1.530625E-6	-34.579219
1.53067E-6	-42.969667
1.530715E-6	-46.93575
1.53076E-6	-47.964232
1.530805E-6	-48.06041
1.53085E-6	-47.342391
1.530895E-6	-42.920043
1.53094E-6	-28.687022
1.530985E-6	-21.528594
1.53103E-6	-18.548036
1.531075E-6	-17.644716
1.53112E-6	-17.442452
1.531165E-6	-17.382615
1.53121E-6	-17.351822
1.531255E-6	-17.535014
1.5313E-6	-18.877302
1.531345E-6	-22.706732
1.53139E-6	-30.760828
1.531435E-6	-40.680847
1.53148E-6	-46.149302
1.531525E-6	-47.8199
1.53157E-6	-48.121974
1.531615E-6	-47.785858
1.53166E-6	-45.68154
1.531705E-6	-33.243133
1.53175E-6	-23.43327
1.531795E-6	-19.295927
1.53184E-6	-17.734001
1.531885E-6	-17.399286
1.53193E-6	-17.32359
1.531975E-6	-17.328283
1.53202E-6	-17.384992
1.532065E-6	-18.035475
1.53211E-6	-20.627831
1.532155E-6	-26.732546
1.5322E-6	-37.265357
1.532245E-6	-44.408118
1.53229E-6	-47.368375
1.532335E-6	-48.088285
1.53238E-6	-48.046539
1.532425E-6	-46.948637
1.53247E-6	-39.800533
1.532515E-6	-25.941416
1.53256E-6	-20.319375
1.532605E-6	-18.029953
1.53265E-6	-17.454519
1.532695E-6	-17.375489
1.53274E-6	-17.375489
1.532785E-6	-17.428016
1.53283E-6	-17.81202
1.532875E-6	-19.649707
1.53292E-6	-24.312118
1.532965E-6	-33.514448
1.53301E-6	-42.447351
1.533055E-6	-46.846595
1.5331E-6	-48.04931
1.533145E-6	-48.236193
1.53319E-6	-47.749493
1.533235E-6	-44.878495
1.53328E-6	-31.544679
1.533325E-6	-22.515794
1.53337E-6	-18.804142
1.533415E-6	-17.552282
1.53346E-6	-17.347104
1.533505E-6	-17.375489
1.53355E-6	-17.449688
1.533595E-6	-17.614521
1.53364E-6	-18.591778
1.533685E-6	-21.750285
1.53373E-6	-28.820662
1.533775E-6	-39.411945
1.53382E-6	-45.49443
1.533865E-6	-47.825161
1.53391E-6	-48.33866
1.533955E-6	-48.17015
1.534E-6	-46.751005
1.534045E-6	-38.158766
1.53409E-6	-24.997635
1.534135E-6	-19.771594
1.53418E-6	-17.710866
1.534225E-6	-17.256112
1.53427E-6	-17.253804
1.534315E-6	-17.340036
1.53436E-6	-17.440043
1.534405E-6	-17.93444
1.53445E-6	-20.011742
1.534495E-6	-24.9485
1.53454E-6	-34.704413
1.534585E-6	-43.028579
1.53463E-6	-47.2262
1.534675E-6	-48.347557
1.53472E-6	-48.461851
1.534765E-6	-47.775437
1.53481E-6	-43.882767
1.534855E-6	-29.637705
1.5349E-6	-21.481915
1.534945E-6	-18.262312
1.53499E-6	-17.246886
1.535035E-6	-17.142177
1.53508E-6	-17.217038
1.535125E-6	-17.325936
1.53517E-6	-17.564659
1.535215E-6	-18.827287
1.53526E-6	-22.449641
1.535305E-6	-30.07314
1.53535E-6	-40.11129
1.535395E-6	-46.274562
1.53544E-6	-48.236193
1.535485E-6	-48.629625
1.53553E-6	-48.374356
1.535575E-6	-46.611453
1.53562E-6	-36.371407
1.535665E-6	-24.436975
1.53571E-6	-19.344203
1.535755E-6	-17.358908
1.5358E-6	-16.972363
1.535845E-6	-16.994045
1.53589E-6	-17.064165
1.535935E-6	-17.176045
1.53598E-6	-17.726276
1.536025E-6	-19.952488
1.53607E-6	-25.517576
1.536115E-6	-35.767541
1.53616E-6	-43.920091
1.536205E-6	-47.579558
1.53625E-6	-48.607508
1.536295E-6	-48.696662
1.53634E-6	-47.87546
1.536385E-6	-43.579314
1.53643E-6	-29.211808
1.536475E-6	-21.189579
1.53652E-6	-17.94525
1.536565E-6	-16.9897
1.53661E-6	-16.897316
1.536655E-6	-16.92504
1.5367E-6	-16.985359
1.536745E-6	-17.162466
1.53679E-6	-18.407337
1.536835E-6	-21.987335
1.53688E-6	-29.897
1.536925E-6	-40.066961
1.53697E-6	-46.237881
1.537015E-6	-48.323873
1.53706E-6	-48.787685
1.537105E-6	-48.501653
1.53715E-6	-46.710091
1.537195E-6	-36.261689
1.53724E-6	-24.197595
1.537285E-6	-19.197344
1.53733E-6	-17.173779
1.537375E-6	-16.773673
1.53742E-6	-16.744843
1.537465E-6	-16.744843
1.53751E-6	-16.781945
1.537555E-6	-17.276942
1.5376E-6	-19.492337
1.537645E-6	-24.87983
1.53769E-6	-35.043169
1.537735E-6	-43.357342
1.53778E-6	-47.432823
1.537825E-6	-48.635966
1.53787E-6	-48.758219
1.537915E-6	-48.005191
1.53796E-6	-44.144265
1.538005E-6	-29.875846
1.53805E-6	-21.305336
1.538095E-6	-17.801536
1.53814E-6	-16.683703
1.538185E-6	-16.515004
1.53823E-6	-16.478175
1.538275E-6	-16.455074
1.53832E-6	-16.585655
1.538365E-6	-17.672579
1.53841E-6	-21.058502
1.538455E-6	-28.751699
1.5385E-6	-39.408154
1.538545E-6	-45.537736
1.53859E-6	-48.133261
1.538635E-6	-48.722475
1.53868E-6	-48.541823
1.538725E-6	-47.011469
1.53877E-6	-38.247782
1.538815E-6	-24.898573
1.53886E-6	-19.450041
1.538905E-6	-17.251497
1.53895E-6	-16.724367
1.538995E-6	-16.631402
1.53904E-6	-16.577748
1.539085E-6	-16.571827
1.53913E-6	-16.944337
1.539175E-6	-18.92112
1.53922E-6	-23.985919
1.539265E-6	-33.630109
1.53931E-6	-42.516569
1.539355E-6	-47.110804
1.5394E-6	-48.477117
1.539445E-6	-48.677403
1.53949E-6	-48.029953
1.539535E-6	-44.799097
1.53958E-6	-30.773264
1.539625E-6	-21.769172
1.53967E-6	-18.113527
1.539715E-6	-16.834007
1.53976E-6	-16.589614
1.539805E-6	-16.532559
1.53985E-6	-16.483969
1.539895E-6	-16.518899
1.53994E-6	-17.432823
1.539985E-6	-20.497325
1.54003E-6	-27.953375
1.540075E-6	-38.548036
1.54012E-6	-45.141367
1.540165E-6	-47.833064
1.54021E-6	-48.551146
1.540255E-6	-48.443604
1.5403E-6	-47.20105
1.540345E-6	-40.03357
1.54039E-6	-25.946536
1.540435E-6	-19.92679
1.54048E-6	-17.399286
1.540525E-6	-16.689778
1.54057E-6	-16.544302
1.540615E-6	-16.487837
1.54066E-6	-16.455074
1.540705E-6	-16.720284
1.54075E-6	-18.383326
1.540795E-6	-22.882771
1.54084E-6	-31.871535
1.540885E-6	-41.407416
1.54093E-6	-46.548224
1.540975E-6	-48.213108
1.54102E-6	-48.486301
1.541065E-6	-48.10229
1.54111E-6	-45.772461
1.541155E-6	-33.263341
1.5412E-6	-23.030324
1.541245E-6	-18.76475
1.54129E-6	-17.07301
1.541335E-6	-16.697892
1.54138E-6	-16.613443
1.541425E-6	-16.546263
1.54147E-6	-16.579723
1.541515E-6	-17.256112
1.54156E-6	-19.913998
1.541605E-6	-26.188849
1.54165E-6	-36.621416
1.541695E-6	-44.108326
1.54174E-6	-47.454519
1.541785E-6	-48.300318
1.54183E-6	-48.309136
1.541875E-6	-47.396901
1.54192E-6	-42.395021
1.541965E-6	-28.002448
1.54201E-6	-20.641402
1.542055E-6	-17.624563
1.5421E-6	-16.759234
1.542145E-6	-16.5738
1.54219E-6	-16.515004
1.542235E-6	-16.487837
1.54228E-6	-16.605486
1.542325E-6	-17.830428
1.54237E-6	-21.449657
1.542415E-6	-29.625735
1.54246E-6	-39.381707
1.542505E-6	-45.597208
1.54255E-6	-47.806775
1.542595E-6	-48.262312
1.54264E-6	-48.035475
1.542685E-6	-46.460838
1.54273E-6	-36.577748
1.542775E-6	-24.49894
1.54282E-6	-19.314431
1.542865E-6	-17.272304
1.54291E-6	-16.779876
1.542955E-6	-16.673596
1.543E-6	-16.635403
1.543045E-6	-16.611453
1.54309E-6	-16.905828
1.543135E-6	-18.78112
1.54318E-6	-23.585259
1.543225E-6	-33.388501
1.54327E-6	-42.128939
1.543315E-6	-46.641411
1.54336E-6	-47.966951
1.543405E-6	-48.167302
1.54345E-6	-47.647241
1.543495E-6	-44.845236
1.54354E-6	-31.347183
1.543585E-6	-22.15454
1.54363E-6	-18.33866
1.543675E-6	-16.981023
1.54372E-6	-16.697892
1.543765E-6	-16.631402
1.54381E-6	-16.607474
1.543855E-6	-16.641411
1.5439E-6	-17.375489
1.543945E-6	-20.051552
1.54399E-6	-26.378947
1.544035E-6	-37.004927
1.54408E-6	-44.186193
1.544125E-6	-47.293212
1.54417E-6	-48.068754
1.544215E-6	-48.057633
1.54426E-6	-47.124222
1.544305E-6	-41.903056
1.54435E-6	-27.358908
1.544395E-6	-20.535969
1.54444E-6	-17.767637
1.544485E-6	-16.950788
1.54453E-6	-16.813107
1.544575E-6	-16.765416
1.54462E-6	-16.746896
1.544665E-6	-16.876111
1.54471E-6	-18.06041
1.544755E-6	-21.680023
1.5448E-6	-29.677843
1.544845E-6	-39.578184
1.54489E-6	-45.683147
1.544935E-6	-47.664962
1.54498E-6	-48.093882
1.545025E-6	-47.85421
1.54507E-6	-46.23423
1.545115E-6	-35.726762
1.54516E-6	-24.223933
1.545205E-6	-19.251836
1.54525E-6	-17.297871
1.545295E-6	-16.844495
1.54534E-6	-16.784016
1.545385E-6	-16.746896
1.54543E-6	-16.759234
1.545475E-6	-17.108572
1.54552E-6	-19.013563
1.545565E-6	-23.860525
1.54561E-6	-33.195738
1.545655E-6	-42.071882
1.5457E-6	-46.593576
1.545745E-6	-47.864822
1.54579E-6	-48.071539
1.545835E-6	-47.634627
1.54588E-6	-45.223001
1.545925E-6	-32.362726
1.54597E-6	-22.531324
1.546015E-6	-18.471004
1.54606E-6	-17.10634
1.546105E-6	-16.838199
1.54615E-6	-16.779876
1.546195E-6	-16.761294
1.54624E-6	-16.79646
1.546285E-6	-17.382615
1.54633E-6	-19.884296
1.546375E-6	-26.004993
1.54642E-6	-36.258017
1.546465E-6	-43.829997
1.54651E-6	-47.108572
1.546555E-6	-47.983298
1.5466E-6	-48.01893
1.546645E-6	-47.233085
1.54669E-6	-42.544568
1.546735E-6	-28.59492
1.54678E-6	-20.928037
1.546825E-6	-17.915586
1.54687E-6	-16.942188
1.546915E-6	-16.746896
1.54696E-6	-16.703988
1.547005E-6	-16.710091
1.54705E-6	-16.842395
1.547095E-6	-17.864822
1.54714E-6	-21.126078
1.547185E-6	-28.480176
1.54723E-6	-38.985966
1.547275E-6	-45.124374
1.54732E-6	-47.483618
1.547365E-6	-48.021683
1.54741E-6	-47.910215
1.547455E-6	-46.699923
1.5475E-6	-39.480761
1.547545E-6	-25.760991
1.54759E-6	-19.850597
1.547635E-6	-17.459355
1.54768E-6	-16.838199
1.547725E-6	-16.720284
1.54777E-6	-16.714166
1.547815E-6	-16.714166
1.54786E-6	-16.899443
1.547905E-6	-18.329782
1.54795E-6	-22.338847
1.547995E-6	-30.895891
1.54804E-6	-40.58936
1.548085E-6	-45.912514
1.54813E-6	-47.710866
1.548175E-6	-48.038238
1.54822E-6	-47.746907
1.548265E-6	-45.946536
1.54831E-6	-34.997635
1.548355E-6	-23.846813
1.5484E-6	-19.065783
1.548445E-6	-17.20105
1.54849E-6	-16.757175
1.548535E-6	-16.693833
1.54858E-6	-16.685727
1.548625E-6	-16.703988
1.54867E-6	-17.077439
1.548715E-6	-19.051796
1.54876E-6	-24.149907
1.548805E-6	-33.607128
1.54885E-6	-42.219211
1.548895E-6	-46.591595
1.54894E-6	-47.851562
1.548985E-6	-48.010681
1.54903E-6	-47.539941
1.549075E-6	-44.936303
1.54912E-6	-32.34555
1.549165E-6	-22.546129
1.54921E-6	-18.529423
1.549255E-6	-17.020208
1.5493E-6	-16.726411
1.549345E-6	-16.687752
1.54939E-6	-16.689778
1.549435E-6	-16.722325
1.54948E-6	-17.307206
1.549525E-6	-19.771594
1.54957E-6	-25.583049
1.549615E-6	-35.841923
1.54966E-6	-43.404641
1.549705E-6	-46.957249
1.54975E-6	-47.886124
1.549795E-6	-47.947956
1.54984E-6	-47.23998
1.549885E-6	-43.470771
1.54993E-6	-29.527251
1.549975E-6	-21.417637
1.55002E-6	-18.032713
1.550065E-6	-16.978856
1.55011E-6	-16.786087
1.550155E-6	-16.763355
1.5502E-6	-16.74074
1.550245E-6	-16.773673
1.55029E-6	-17.490923
1.550335E-6	-20.20816
1.55038E-6	-26.790233
1.550425E-6	-37.614521
1.55047E-6	-44.272445
1.550515E-6	-47.20105
1.55056E-6	-47.880789
1.550605E-6	-47.848914
1.55065E-6	-46.907958
1.550695E-6	-41.432107
1.55074E-6	-27.124222
1.550785E-6	-20.502685
1.55083E-6	-17.700623
1.550875E-6	-16.888822
1.55092E-6	-16.728455
1.550965E-6	-16.703988
1.55101E-6	-16.677636
1.551055E-6	-16.777807
1.5511E-6	-17.822529
1.551145E-6	-21.154878
1.55119E-6	-28.774565
1.551235E-6	-39.20457
1.55128E-6	-45.072396
1.551325E-6	-47.358908
1.55137E-6	-47.864822
1.551415E-6	-47.767637
1.55146E-6	-46.613443
1.551505E-6	-39.746941
1.55155E-6	-26.106567
1.551595E-6	-20.010871
1.55164E-6	-17.525177
1.551685E-6	-16.880343
1.55173E-6	-16.773673
1.551775E-6	-16.74074
1.55182E-6	-16.720284
1.551865E-6	-16.895191
1.55191E-6	-18.224635
1.551955E-6	-22.031483
1.552E-6	-30.22185
1.552045E-6	-39.871628
1.55209E-6	-45.622494
1.552135E-6	-47.46662
1.55218E-6	-47.838341
1.552225E-6	-47.609509
1.55227E-6	-46.08712
1.552315E-6	-36.278247
1.55236E-6	-24.385408
1.552405E-6	-19.303319
1.55245E-6	-17.281584
1.552495E-6	-16.817279
1.55254E-6	-16.753061
1.552585E-6	-16.716204
1.55263E-6	-16.687752
1.552675E-6	-16.961562
1.55272E-6	-18.655041
1.552765E-6	-23.170431
1.55281E-6	-31.978422
1.552855E-6	-41.286606
1.5529E-6	-46.14215
1.552945E-6	-47.554755
1.55299E-6	-47.79369
1.553035E-6	-47.459355
1.55308E-6	-45.480601
1.553125E-6	-34.393761
1.55317E-6	-23.249553
1.553215E-6	-18.748442
1.55326E-6	-17.070797
1.553305E-6	-16.697892
1.55335E-6	-16.599527
1.553395E-6	-16.561977
1.55344E-6	-16.567884
1.553485E-6	-16.944337
1.55353E-6	-18.894103
1.553575E-6	-23.755116
1.55362E-6	-33.304972
1.553665E-6	-41.773743
1.55371E-6	-46.261689
1.553755E-6	-47.547342
1.5538E-6	-47.746907
1.553845E-6	-47.349462
1.55389E-6	-44.975729
1.553935E-6	-32.49029
1.55398E-6	-22.632849
1.554025E-6	-18.59492
1.55407E-6	-17.110804
1.554115E-6	-16.802695
1.55416E-6	-16.703988
1.554205E-6	-16.661499
1.55425E-6	-16.699923
1.554295E-6	-17.086311
1.55434E-6	-19.197344
1.554385E-6	-24.426131
1.55443E-6	-34.285241
1.554475E-6	-42.616159
1.55452E-6	-46.445485
1.554565E-6	-47.56962
1.55461E-6	-47.690404
1.554655E-6	-47.162466
1.5547E-6	-44.273607
1.554745E-6	-30.849697
1.55479E-6	-22.003149
1.554835E-6	-18.33866
1.55488E-6	-17.079656
1.554925E-6	-16.811023
1.55497E-6	-16.724367
1.555015E-6	-16.703988
1.55506E-6	-16.74074
1.555105E-6	-17.223908
1.55515E-6	-19.54677
1.555195E-6	-25.120137
1.55524E-6	-35.434821
1.555285E-6	-43.144374
1.55533E-6	-46.627405
1.555375E-6	-47.557229
1.55542E-6	-47.619539
1.555465E-6	-46.976691
1.55551E-6	-43.421795
1.555555E-6	-29.503944
1.5556E-6	-21.354889
1.555645E-6	-18.032713
1.55569E-6	-16.985359
1.555735E-6	-16.751005
1.55578E-6	-16.708056
1.555825E-6	-16.693833
1.55587E-6	-16.728455
1.555915E-6	-17.258422
1.55596E-6	-19.681877
1.556005E-6	-25.627252
1.55605E-6	-36.006725
1.556095E-6	-43.464981
1.55614E-6	-46.697892
1.556185E-6	-47.542406
1.55623E-6	-47.589518
1.556275E-6	-46.916491
1.55632E-6	-43.236723
1.556365E-6	-29.266483
1.55641E-6	-21.315319
1.556455E-6	-17.9588
1.5565E-6	-16.905828
1.556545E-6	-16.687752
1.55659E-6	-16.633402
1.556635E-6	-16.639407
1.55668E-6	-16.68168
1.556725E-6	-17.356545
1.55677E-6	-20.017843
1.556815E-6	-26.392173
1.55686E-6	-36.744843
1.556905E-6	-43.76544
1.55695E-6	-46.804776
1.556995E-6	-47.542406
1.55704E-6	-47.572102
1.557085E-6	-46.876111
1.55713E-6	-42.977418
1.557175E-6	-28.951716
1.55722E-6	-21.001795
1.557265E-6	-17.79369
1.55731E-6	-16.751005
1.557355E-6	-16.532559
1.5574E-6	-16.518899
1.557445E-6	-16.524748
1.55749E-6	-16.560009
1.557535E-6	-17.290884
1.55758E-6	-20.088182
1.557625E-6	-26.546263
1.55767E-6	-36.9897
1.557715E-6	-43.871102
1.55776E-6	-46.78816
1.557805E-6	-47.547342
1.55785E-6	-47.577071
1.557895E-6	-46.878226
1.55794E-6	-42.762981
1.557985E-6	-28.917733
1.55803E-6	-21.196438
1.558075E-6	-17.870138
1.55812E-6	-16.759234
1.558165E-6	-16.538427
1.55821E-6	-16.520848
1.558255E-6	-16.542343
1.5583E-6	-16.613443
1.558345E-6	-17.375489
1.55839E-6	-20.231
1.558435E-6	-26.786087
1.55848E-6	-37.246886
1.558525E-6	-43.951262
1.55857E-6	-46.882461
1.558615E-6	-47.609509
1.55866E-6	-47.619539
1.558705E-6	-46.912222
1.55875E-6	-42.700257
1.558795E-6	-28.787685
1.55884E-6	-21.047985
1.558885E-6	-17.825161
1.55893E-6	-16.815193
1.558975E-6	-16.619421
1.55902E-6	-16.621416
1.559065E-6	-16.645421
1.55911E-6	-16.736641
1.559155E-6	-17.478754
1.5592E-6	-20.167798
1.559245E-6	-26.597542
1.55929E-6	-37.044329
1.559335E-6	-44.009908
1.55938E-6	-46.955095
1.559425E-6	-47.692957
1.55947E-6	-47.708303
1.559515E-6	-46.959405
1.55956E-6	-42.546129
1.559605E-6	-28.474059
1.55965E-6	-20.856039
1.559695E-6	-17.759852
1.55974E-6	-16.804776
1.559785E-6	-16.667543
1.55983E-6	-16.673596
1.559875E-6	-16.708056
1.55992E-6	-16.815193
1.559965E-6	-17.552282
1.56001E-6	-20.339991
1.560055E-6	-26.899443
1.5601E-6	-37.187393
1.560145E-6	-44.020855
1.56019E-6	-47.061956
1.560235E-6	-47.8199
1.56028E-6	-47.85421
1.560325E-6	-47.178312
1.56037E-6	-43.318005
1.560415E-6	-29.336741
1.56046E-6	-21.091321
1.560505E-6	-17.734001
1.56055E-6	-16.659486
1.560595E-6	-16.480105
1.56064E-6	-16.49752
1.560685E-6	-16.546263
1.56073E-6	-16.649435
1.560775E-6	-17.411234
1.56082E-6	-20.206793
1.560865E-6	-26.645421
1.56091E-6	-37.178312
1.560955E-6	-44.148778
1.561E-6	-47.14893
1.561045E-6	-47.9588
1.56109E-6	-47.999707
1.561135E-6	-47.293212
1.56118E-6	-43.36959
1.561225E-6	-29.381707
1.56127E-6	-21.099145
1.561315E-6	-17.657359
1.56136E-6	-16.613443
1.561405E-6	-16.445485
1.56145E-6	-16.468535
1.561495E-6	-16.522798
1.56154E-6	-16.625407
1.561585E-6	-17.272304
1.56163E-6	-19.838026
1.561675E-6	-26.088884
1.56172E-6	-36.428277
1.561765E-6	-43.827899
1.56181E-6	-47.137681
1.561855E-6	-48.096683
1.5619E-6	-48.193008
1.561945E-6	-47.62205
1.56199E-6	-44.541982
1.562035E-6	-30.937727
1.56208E-6	-21.723723
1.562125E-6	-17.942545
1.56217E-6	-16.627405
1.562215E-6	-16.416844
1.56226E-6	-16.445485
1.562305E-6	-16.511113
1.56235E-6	-16.605486
1.562395E-6	-17.099654
1.56244E-6	-19.262816
1.562485E-6	-24.606729
1.56253E-6	-34.393761
1.562575E-6	-42.723774
1.56262E-6	-46.955095
1.562665E-6	-48.22175
1.56271E-6	-48.38632
1.562755E-6	-47.89414
1.5628E-6	-45.259295
1.562845E-6	-32.404832
1.56289E-6	-22.207644
1.562935E-6	-18.029953
1.56298E-6	-16.530605
1.563025E-6	-16.256183
1.56307E-6	-16.278247
1.563115E-6	-16.360122
1.56316E-6	-16.460838
1.563205E-6	-16.899443
1.56325E-6	-18.989406
1.563295E-6	-24.019759
1.56334E-6	-34.016473
1.563385E-6	-42.312879
1.56343E-6	-46.944337
1.563475E-6	-48.377344
