Wavelength (nm)	Power (dBm)
1.525E-6	-45.356595
1.525045E-6	-45.244741
1.52509E-6	-45.089186
1.525135E-6	-44.933597
1.52518E-6	-44.782084
1.525225E-6	-44.625587
1.52527E-6	-44.491604
1.525315E-6	-44.343883
1.52536E-6	-44.218194
1.525405E-6	-44.058285
1.52545E-6	-43.923306
1.525495E-6	-43.774751
1.52554E-6	-43.646168
1.525585E-6	-43.518352
1.52563E-6	-43.377145
1.525675E-6	-43.2468
1.52572E-6	-43.14527
1.525765E-6	-42.999889
1.52581E-6	-42.903909
1.525855E-6	-42.793446
1.5259E-6	-42.69137
1.525945E-6	-42.602695
1.52599E-6	-42.521223
1.526035E-6	-42.405588
1.52608E-6	-42.312879
1.526125E-6	-42.234441
1.52617E-6	-42.129648
1.526215E-6	-42.022479
1.52626E-6	-41.875546
1.526305E-6	-41.713401
1.52635E-6	-41.612768
1.526395E-6	-41.514414
1.52644E-6	-41.45269
1.526485E-6	-41.319436
1.52653E-6	-41.257502
1.526575E-6	-41.137914
1.52662E-6	-41.061273
1.526665E-6	-41.004531
1.52671E-6	-40.996875
1.526755E-6	-40.909256
1.5268E-6	-40.813407
1.526845E-6	-40.76756
1.52689E-6	-40.692547
1.526935E-6	-40.616304
1.52698E-6	-40.504636
1.527025E-6	-40.464336
1.52707E-6	-40.34422
1.527115E-6	-40.21135
1.52716E-6	-40.150229
1.527205E-6	-40.084638
1.52725E-6	-40.000434
1.527295E-6	-39.931063
1.52734E-6	-39.897
1.527385E-6	-39.858997
1.52743E-6	-39.833845
1.527475E-6	-39.825493
1.52752E-6	-39.812995
1.527565E-6	-39.817157
1.52761E-6	-39.779843
1.527655E-6	-39.738755
1.5277E-6	-39.665762
1.527745E-6	-39.649707
1.52779E-6	-39.633711
1.527835E-6	-39.566377
1.52788E-6	-39.453869
1.527925E-6	-39.362914
1.52797E-6	-39.362914
1.528015E-6	-39.318141
1.52806E-6	-39.299621
1.528105E-6	-39.295927
1.52815E-6	-39.288547
1.528195E-6	-39.229957
1.52824E-6	-39.344203
1.528285E-6	-39.393022
1.52833E-6	-39.408154
1.528375E-6	-39.419538
1.52842E-6	-39.37418
1.528465E-6	-39.419538
1.52851E-6	-39.389247
1.528555E-6	-39.408154
1.5286E-6	-39.393022
1.528645E-6	-39.295927
1.52869E-6	-39.240882
1.528735E-6	-39.172146
1.52878E-6	-39.179331
1.528825E-6	-39.215432
1.52887E-6	-39.248181
1.528915E-6	-39.255493
1.52896E-6	-39.259153
1.529005E-6	-39.366666
1.52905E-6	-39.469216
1.529095E-6	-39.488475
1.52914E-6	-39.542859
1.529185E-6	-39.523358
1.52923E-6	-39.527251
1.529275E-6	-39.578184
1.52932E-6	-39.586073
1.529365E-6	-39.554602
1.52941E-6	-39.457701
1.529455E-6	-39.419538
1.5295E-6	-39.385475
1.529545E-6	-39.389247
1.52959E-6	-39.404366
1.529635E-6	-39.461536
1.52968E-6	-39.465374
1.529725E-6	-39.511699
1.52977E-6	-39.554602
1.529815E-6	-39.706162
1.52986E-6	-39.755143
1.529905E-6	-39.788107
1.52995E-6	-39.812995
1.529995E-6	-39.812995
1.53004E-6	-39.842212
1.530085E-6	-39.901244
1.53013E-6	-39.854795
1.530175E-6	-39.783973
1.53022E-6	-39.718356
1.530265E-6	-39.694003
1.53031E-6	-39.698052
1.530355E-6	-39.726504
1.5304E-6	-39.767475
1.530445E-6	-39.75925
1.53049E-6	-39.75925
1.530535E-6	-39.850597
1.53058E-6	-39.922522
1.530625E-6	-40.043209
1.53067E-6	-40.068284
1.530715E-6	-40.078443
1.53076E-6	-40.109063
1.530805E-6	-40.131835
1.53085E-6	-40.14349
1.530895E-6	-40.188612
1.53094E-6	-40.098388
1.530985E-6	-40.018279
1.53103E-6	-39.965395
1.531075E-6	-39.93962
1.53112E-6	-39.97402
1.531165E-6	-39.986991
1.53121E-6	-40.014791
1.531255E-6	-39.956786
1.5313E-6	-40.015227
1.531345E-6	-40.155177
1.53139E-6	-40.283068
1.531435E-6	-40.277972
1.53148E-6	-40.306773
1.531525E-6	-40.34375
1.53157E-6	-40.306307
1.531615E-6	-40.34281
1.53166E-6	-40.354104
1.531705E-6	-40.332015
1.53175E-6	-40.215912
1.531795E-6	-40.15923
1.53184E-6	-40.156978
1.531885E-6	-40.137659
1.53193E-6	-40.169152
1.531975E-6	-40.184985
1.53202E-6	-40.147532
1.532065E-6	-40.184985
1.53211E-6	-40.271032
1.532155E-6	-40.373466
1.5322E-6	-40.465303
1.532245E-6	-40.444084
1.53229E-6	-40.462403
1.532335E-6	-40.489054
1.53238E-6	-40.48274
1.532425E-6	-40.485653
1.53247E-6	-40.5061
1.532515E-6	-40.410063
1.53256E-6	-40.355047
1.532605E-6	-40.313303
1.53265E-6	-40.260413
1.532695E-6	-40.278435
1.53274E-6	-40.265489
1.532785E-6	-40.300718
1.53283E-6	-40.296066
1.532875E-6	-40.40148
1.53292E-6	-40.469655
1.532965E-6	-40.570004
1.53301E-6	-40.544822
1.533055E-6	-40.576942
1.5331E-6	-40.619809
1.533145E-6	-40.60331
1.53319E-6	-40.628333
1.533235E-6	-40.605806
1.53328E-6	-40.570004
1.533325E-6	-40.51196
1.53337E-6	-40.422012
1.533415E-6	-40.385314
1.53346E-6	-40.419142
1.533505E-6	-40.4072
1.53355E-6	-40.414839
1.533595E-6	-40.438796
1.53364E-6	-40.45854
1.533685E-6	-40.538918
1.53373E-6	-40.654511
1.533775E-6	-40.674755
1.53382E-6	-40.688474
1.533865E-6	-40.72527
1.53391E-6	-40.744301
1.533955E-6	-40.724757
1.534E-6	-40.709389
1.534045E-6	-40.721166
1.53409E-6	-40.621312
1.534135E-6	-40.577935
1.53418E-6	-40.520274
1.534225E-6	-40.524683
1.53427E-6	-40.557148
1.534315E-6	-40.508052
1.53436E-6	-40.570499
1.534405E-6	-40.544329
1.53445E-6	-40.587868
1.534495E-6	-40.621813
1.53454E-6	-40.722192
1.534585E-6	-40.761863
1.53463E-6	-40.761345
1.534675E-6	-40.773264
1.53472E-6	-40.763934
1.534765E-6	-40.770152
1.53481E-6	-40.752556
1.534855E-6	-40.738634
1.5349E-6	-40.676277
1.534945E-6	-40.650473
1.53499E-6	-40.598323
1.535035E-6	-40.599818
1.53508E-6	-40.610302
1.535125E-6	-40.59932
1.53517E-6	-40.631345
1.535215E-6	-40.669685
1.53526E-6	-40.702746
1.535305E-6	-40.772227
1.53535E-6	-40.783655
1.535395E-6	-40.819697
1.53544E-6	-40.8019
1.535485E-6	-40.831777
1.53553E-6	-40.82442
1.535575E-6	-40.834934
1.53562E-6	-40.786778
1.535665E-6	-40.742755
1.53571E-6	-40.704278
1.535755E-6	-40.670192
1.5358E-6	-40.648456
1.535845E-6	-40.659563
1.53589E-6	-40.682371
1.535935E-6	-40.669685
1.53598E-6	-40.659563
1.536025E-6	-40.682879
1.53607E-6	-40.724757
1.536115E-6	-40.780016
1.53616E-6	-40.789381
1.536205E-6	-40.814455
1.53625E-6	-40.790944
1.536295E-6	-40.796679
1.53634E-6	-40.778457
1.536385E-6	-40.800855
1.53643E-6	-40.775341
1.536475E-6	-40.685421
1.53652E-6	-40.641402
1.536565E-6	-40.627831
1.53661E-6	-40.66108
1.536655E-6	-40.642913
1.5367E-6	-40.646943
1.536745E-6	-40.646439
1.53679E-6	-40.615303
1.536835E-6	-40.689492
1.53688E-6	-40.745332
1.536925E-6	-40.724757
1.53697E-6	-40.755656
1.537015E-6	-40.760828
1.53706E-6	-40.754623
1.537105E-6	-40.778976
1.53715E-6	-40.76238
1.537195E-6	-40.75204
1.53724E-6	-40.671205
1.537285E-6	-40.651987
1.53733E-6	-40.60331
1.537375E-6	-40.553693
1.53742E-6	-40.581409
1.537465E-6	-40.591848
1.53751E-6	-40.602811
1.537555E-6	-40.5611
1.5376E-6	-40.572976
1.537645E-6	-40.667152
1.53769E-6	-40.687965
1.537735E-6	-40.688474
1.53778E-6	-40.697134
1.537825E-6	-40.687456
1.53787E-6	-40.717578
1.537915E-6	-40.704789
1.53796E-6	-40.714505
1.538005E-6	-40.660068
1.53805E-6	-40.583395
1.538095E-6	-40.547777
1.53814E-6	-40.57149
1.538185E-6	-40.577438
1.53823E-6	-40.560605
1.538275E-6	-40.534986
1.53832E-6	-40.535477
1.538365E-6	-40.530077
1.53841E-6	-40.601315
1.538455E-6	-40.63436
1.5385E-6	-40.679831
1.538545E-6	-40.651987
1.53859E-6	-40.66108
1.538635E-6	-40.674755
1.53868E-6	-40.647951
1.538725E-6	-40.684913
1.53877E-6	-40.686947
1.538815E-6	-40.628835
1.53886E-6	-40.582402
1.538905E-6	-40.537934
1.53895E-6	-40.528114
1.538995E-6	-40.538918
1.53904E-6	-40.524193
1.539085E-6	-40.540885
1.53913E-6	-40.517827
1.539175E-6	-40.557642
1.53922E-6	-40.642913
1.539265E-6	-40.676277
1.53931E-6	-40.700704
1.539355E-6	-40.701215
1.5394E-6	-40.699684
1.539445E-6	-40.692037
1.53949E-6	-40.706833
1.539535E-6	-40.696114
1.53958E-6	-40.684404
1.539625E-6	-40.597824
1.53967E-6	-40.583892
1.539715E-6	-40.575455
1.53976E-6	-40.580912
1.539805E-6	-40.576942
1.53985E-6	-40.5532
1.539895E-6	-40.592843
1.53994E-6	-40.59633
1.539985E-6	-40.644927
1.54003E-6	-40.698153
1.540075E-6	-40.733489
1.54012E-6	-40.742239
1.540165E-6	-40.72527
1.54021E-6	-40.754106
1.540255E-6	-40.770152
1.5403E-6	-40.776379
1.540345E-6	-40.747911
1.54039E-6	-40.704278
1.540435E-6	-40.658047
1.54048E-6	-40.621813
1.540525E-6	-40.622314
1.54057E-6	-40.618307
1.540615E-6	-40.609802
1.54066E-6	-40.638383
1.540705E-6	-40.642409
1.54075E-6	-40.650977
1.540795E-6	-40.735032
1.54084E-6	-40.748943
1.540885E-6	-40.8019
1.54093E-6	-40.782615
1.540975E-6	-40.817075
1.54102E-6	-40.824945
1.541065E-6	-40.810266
1.54111E-6	-40.815503
1.541155E-6	-40.790944
1.5412E-6	-40.730919
1.541245E-6	-40.686438
1.54129E-6	-40.681355
1.541335E-6	-40.668165
1.54138E-6	-40.659563
1.541425E-6	-40.653501
1.54147E-6	-40.690001
1.541515E-6	-40.676785
1.54156E-6	-40.724757
1.541605E-6	-40.820221
1.54165E-6	-40.82442
1.541695E-6	-40.840728
1.54174E-6	-40.842309
1.541785E-6	-40.900163
1.54183E-6	-40.859743
1.541875E-6	-40.877248
1.54192E-6	-40.875122
1.541965E-6	-40.839147
1.54201E-6	-40.751007
1.542055E-6	-40.730405
1.5421E-6	-40.723217
1.542145E-6	-40.71297
1.54219E-6	-40.7099
1.542235E-6	-40.775341
1.54228E-6	-40.750491
1.542325E-6	-40.766523
1.54237E-6	-40.800855
1.542415E-6	-40.859214
1.54246E-6	-40.911934
1.542505E-6	-40.931803
1.54255E-6	-40.945279
1.542595E-6	-40.93665
1.54264E-6	-40.954467
1.542685E-6	-40.937188
1.54273E-6	-40.932879
1.542775E-6	-40.871405
1.54282E-6	-40.859214
1.542865E-6	-40.795636
1.54291E-6	-40.809219
1.542955E-6	-40.79355
1.543E-6	-40.794593
1.543045E-6	-40.795636
1.54309E-6	-40.829674
1.543135E-6	-40.852867
1.54318E-6	-40.901766
1.543225E-6	-41.006721
1.54327E-6	-41.02868
1.543315E-6	-41.043565
1.54336E-6	-41.013845
1.543405E-6	-41.026479
1.54345E-6	-41.036943
1.543495E-6	-41.033636
1.54354E-6	-41.024829
1.543585E-6	-40.94312
1.54363E-6	-40.890556
1.543675E-6	-40.871405
1.54372E-6	-40.895357
1.543765E-6	-40.900163
1.54381E-6	-40.924274
1.543855E-6	-40.918368
1.5439E-6	-40.911398
1.543945E-6	-40.966929
1.54399E-6	-41.049091
1.544035E-6	-41.123827
1.54408E-6	-41.100823
1.544125E-6	-41.132274
1.54417E-6	-41.141301
1.544215E-6	-41.139043
1.54426E-6	-41.139607
1.544305E-6	-41.165657
1.54435E-6	-41.114835
1.544395E-6	-41.019883
1.54444E-6	-40.978339
1.544485E-6	-40.978339
1.54453E-6	-41.001248
1.544575E-6	-40.995236
1.54462E-6	-41.034738
1.544665E-6	-41.028129
1.54471E-6	-41.043565
1.544755E-6	-41.101942
1.5448E-6	-41.183301
1.544845E-6	-41.265631
1.54489E-6	-41.249387
1.544935E-6	-41.229167
1.54498E-6	-41.23032
1.545025E-6	-41.193579
1.54507E-6	-40.960423
1.545115E-6	-36.819367
1.54516E-6	-27.389752
1.545205E-6	-22.289272
1.54525E-6	-20.19633
1.545295E-6	-19.710223
1.54534E-6	-19.681877
1.545385E-6	-19.698052
1.54543E-6	-19.665762
1.545475E-6	-20.078001
1.54552E-6	-22.099965
1.545565E-6	-27.281584
1.54561E-6	-35.846927
1.545655E-6	-40.318441
1.5457E-6	-41.14865
1.545745E-6	-41.310031
1.54579E-6	-41.346591
1.545835E-6	-41.360826
1.54588E-6	-41.364392
1.545925E-6	-41.340673
1.54597E-6	-41.271448
1.546015E-6	-41.22053
1.54606E-6	-41.188437
1.546105E-6	-41.208468
1.54615E-6	-41.210763
1.546195E-6	-41.209041
1.54624E-6	-41.199872
1.546285E-6	-41.209615
1.54633E-6	-41.273194
1.546375E-6	-41.354889
1.54642E-6	-41.408016
1.546465E-6	-41.426072
1.54651E-6	-41.432107
1.546555E-6	-41.441176
1.5466E-6	-41.45694
1.546645E-6	-41.464235
1.54669E-6	-41.448444
1.546735E-6	-41.400216
1.54678E-6	-41.331812
1.546825E-6	-41.291866
1.54687E-6	-41.295961
1.546915E-6	-41.287774
1.54696E-6	-41.289527
1.547005E-6	-41.28077
1.54705E-6	-41.290696
1.547095E-6	-41.310031
1.54714E-6	-41.383461
1.547185E-6	-41.454511
1.54723E-6	-41.495989
1.547275E-6	-41.519957
1.54732E-6	-41.505806
1.547365E-6	-41.519341
1.54741E-6	-41.529829
1.547455E-6	-41.536629
1.5475E-6	-41.505192
1.547545E-6	-41.442386
1.54759E-6	-41.393027
1.547635E-6	-41.349553
1.54768E-6	-41.356669
1.547725E-6	-41.35845
1.54777E-6	-41.354889
1.547815E-6	-41.351924
1.54786E-6	-41.375704
1.547905E-6	-41.393027
1.54795E-6	-41.45937
1.547995E-6	-41.524273
1.54804E-6	-41.566426
1.548085E-6	-41.560202
1.54813E-6	-41.582027
1.548175E-6	-41.595175
1.54822E-6	-41.586405
1.548265E-6	-41.576404
1.54831E-6	-41.565181
1.548355E-6	-41.502736
1.5484E-6	-41.43936
1.548445E-6	-41.420647
1.54849E-6	-41.408617
1.548535E-6	-41.395422
1.54858E-6	-41.404414
1.548625E-6	-41.403814
1.54867E-6	-41.424263
1.548715E-6	-41.45269
1.54876E-6	-41.52119
1.548805E-6	-41.572036
1.54885E-6	-41.598939
1.548895E-6	-41.614027
1.54894E-6	-41.631697
1.548985E-6	-41.640559
1.54903E-6	-41.631697
1.549075E-6	-41.623484
1.54912E-6	-41.589535
1.549165E-6	-41.533537
1.54921E-6	-41.477641
1.549255E-6	-41.436941
1.5493E-6	-41.419443
1.549345E-6	-41.42125
1.54939E-6	-41.427278
1.549435E-6	-41.432107
1.54948E-6	-41.444203
1.549525E-6	-41.477641
1.54957E-6	-41.547779
1.549615E-6	-41.615917
1.54966E-6	-41.6469
1.549705E-6	-41.656429
1.54975E-6	-41.653886
1.549795E-6	-41.624747
1.54984E-6	-41.529211
1.549885E-6	-40.88949
1.54993E-6	-32.398792
1.549975E-6	-24.394956
1.55002E-6	-21.027579
1.550065E-6	-19.952488
1.55011E-6	-19.783973
1.550155E-6	-19.726504
1.5502E-6	-19.746941
1.550245E-6	-19.796387
1.55029E-6	-20.691019
1.550335E-6	-23.771645
1.55038E-6	-30.378675
1.550425E-6	-38.924509
1.55047E-6	-41.15148
1.550515E-6	-41.551502
1.55056E-6	-41.638025
1.550605E-6	-41.641826
1.55065E-6	-41.645631
1.550695E-6	-41.645631
1.55074E-6	-41.603334
1.550785E-6	-41.530447
1.55083E-6	-41.469105
1.550875E-6	-41.44602
1.55092E-6	-41.442386
1.550965E-6	-41.443597
1.55101E-6	-41.451476
1.551055E-6	-41.455118
1.5511E-6	-41.45269
1.551145E-6	-41.512568
1.55119E-6	-41.585154
1.551235E-6	-41.645631
1.55128E-6	-41.671081
1.551325E-6	-41.660883
1.55137E-6	-41.667254
1.551415E-6	-41.649439
1.55146E-6	-41.653886
1.551505E-6	-41.6469
1.55155E-6	-41.590788
1.551595E-6	-41.49415
1.55164E-6	-41.442992
1.551685E-6	-41.432107
1.55173E-6	-41.44602
1.551775E-6	-41.45087
1.55182E-6	-41.449657
1.551865E-6	-41.432107
1.55191E-6	-41.453904
1.551955E-6	-41.52304
1.552E-6	-41.608363
1.552045E-6	-41.669167
1.55209E-6	-41.660246
1.552135E-6	-41.660883
1.55218E-6	-41.660883
1.552225E-6	-41.662793
1.55227E-6	-41.676188
1.552315E-6	-41.656429
1.55236E-6	-41.573284
1.552405E-6	-41.47703
1.55245E-6	-41.420045
1.552495E-6	-41.427882
1.55254E-6	-41.442992
1.552585E-6	-41.437546
1.55263E-6	-41.440571
1.552675E-6	-41.426675
1.55272E-6	-41.461802
1.552765E-6	-41.540342
1.55281E-6	-41.634227
1.552855E-6	-41.660883
1.5529E-6	-41.667891
1.552945E-6	-41.655157
1.55299E-6	-41.658973
1.553035E-6	-41.667891
1.55308E-6	-41.665341
1.553125E-6	-41.639292
1.55317E-6	-41.550261
1.553215E-6	-41.46606
1.55326E-6	-41.438151
1.553305E-6	-41.444808
1.55335E-6	-41.446626
1.553395E-6	-41.429088
1.55344E-6	-41.427882
1.553485E-6	-41.426675
1.55353E-6	-41.470323
1.553575E-6	-41.560824
1.55362E-6	-41.641193
1.553665E-6	-41.665341
1.55371E-6	-41.664704
1.553755E-6	-41.662793
1.5538E-6	-41.667254
1.553845E-6	-41.688984
1.55389E-6	-41.683861
1.553935E-6	-41.63486
1.55398E-6	-41.54902
1.554025E-6	-41.483748
1.55407E-6	-41.45937
1.554115E-6	-41.44602
1.55416E-6	-41.44602
1.554205E-6	-41.431503
1.55425E-6	-41.427882
1.554295E-6	-41.442386
1.55434E-6	-41.490476
1.554385E-6	-41.586405
1.55443E-6	-41.660246
1.554475E-6	-41.684501
1.55452E-6	-41.677466
1.554565E-6	-41.683861
1.55461E-6	-41.705676
1.554655E-6	-41.690907
1.5547E-6	-41.682582
1.554745E-6	-41.639292
1.55479E-6	-41.547159
1.554835E-6	-41.488028
1.55488E-6	-41.461193
1.554925E-6	-41.456332
1.55497E-6	-41.438151
1.555015E-6	-41.428485
1.55506E-6	-41.435732
1.555105E-6	-41.448444
1.55515E-6	-41.510108
1.555195E-6	-41.602706
1.55524E-6	-41.668529
1.555285E-6	-41.684501
1.55533E-6	-41.688344
1.555375E-6	-41.695396
1.55542E-6	-41.694113
1.555465E-6	-41.699891
1.55551E-6	-41.682582
1.555555E-6	-41.635493
1.5556E-6	-41.553986
1.555645E-6	-41.48497
1.55569E-6	-41.461802
1.555735E-6	-41.459978
1.55578E-6	-41.44905
1.555825E-6	-41.445414
1.55587E-6	-41.461802
1.555915E-6	-41.469714
1.55596E-6	-41.52489
1.556005E-6	-41.607105
1.55605E-6	-41.688344
1.556095E-6	-41.716624
1.55614E-6	-41.715335
1.556185E-6	-41.730834
1.55623E-6	-41.715335
1.556275E-6	-41.706319
1.55632E-6	-41.699891
1.556365E-6	-41.655157
1.55641E-6	-41.578902
1.556455E-6	-41.50642
1.5565E-6	-41.472151
1.556545E-6	-41.467887
1.55659E-6	-41.463626
1.556635E-6	-41.472761
1.55668E-6	-41.477641
1.556725E-6	-41.477641
1.55677E-6	-41.533537
1.556815E-6	-41.618438
1.55686E-6	-41.706962
1.556905E-6	-41.738604
1.55695E-6	-41.752886
1.556995E-6	-41.752235
1.55704E-6	-41.748986
1.557085E-6	-41.743792
1.55713E-6	-41.736012
1.557175E-6	-41.69668
1.55722E-6	-41.606477
1.557265E-6	-41.5422
1.55731E-6	-41.497828
1.557355E-6	-41.4917
1.5574E-6	-41.495989
1.557445E-6	-41.503963
1.55749E-6	-41.511338
1.557535E-6	-41.521807
1.55758E-6	-41.566426
1.557625E-6	-41.677466
1.55767E-6	-41.736012
1.557715E-6	-41.790108
1.55776E-6	-41.787486
1.557805E-6	-41.783555
1.55785E-6	-41.777665
1.557895E-6	-41.782245
1.55794E-6	-41.777011
1.557985E-6	-41.743143
1.55803E-6	-41.643728
1.558075E-6	-41.566426
1.55812E-6	-41.534773
1.558165E-6	-41.529829
1.55821E-6	-41.547779
1.558255E-6	-41.558958
1.5583E-6	-41.554607
1.558345E-6	-41.57266
1.55839E-6	-41.62601
1.558435E-6	-41.708893
1.55848E-6	-41.811805
1.558525E-6	-41.83825
1.55857E-6	-41.848873
1.558615E-6	-41.839577
1.55866E-6	-41.837587
1.558705E-6	-41.836261
1.55875E-6	-41.83825
1.558795E-6	-41.803903
1.55884E-6	-41.699248
1.558885E-6	-41.631065
1.55893E-6	-41.603334
1.558975E-6	-41.613398
1.55902E-6	-41.630433
1.559065E-6	-41.630433
1.55911E-6	-41.628537
1.559155E-6	-41.6469
1.5592E-6	-41.697964
1.559245E-6	-41.803903
1.55929E-6	-41.8809
1.559335E-6	-41.907771
1.55938E-6	-41.911816
1.559425E-6	-41.897003
1.55947E-6	-41.911816
1.559515E-6	-41.921945
1.55956E-6	-41.927356
1.559605E-6	-41.876215
1.55965E-6	-41.78683
1.559695E-6	-41.709537
1.55974E-6	-41.688344
1.559785E-6	-41.706962
1.55983E-6	-41.716624
1.559875E-6	-41.723723
1.55992E-6	-41.71018
1.559965E-6	-41.730187
1.56001E-6	-41.794045
1.560055E-6	-41.888273
1.5601E-6	-41.963381
1.560145E-6	-41.986649
1.56019E-6	-41.990081
1.560235E-6	-41.988022
1.56028E-6	-41.997642
1.560325E-6	-42.004527
1.56037E-6	-42.010043
1.560415E-6	-41.954517
1.56046E-6	-41.861522
1.560505E-6	-41.800614
1.56055E-6	-41.803903
1.560595E-6	-41.807852
1.56064E-6	-41.810487
1.560685E-6	-41.801929
1.56073E-6	-41.810487
1.560775E-6	-41.824346
1.56082E-6	-41.8809
1.560865E-6	-41.983905
1.56091E-6	-42.046067
1.560955E-6	-42.05512
1.561E-6	-42.054422
1.561045E-6	-42.057909
1.56109E-6	-42.065589
1.561135E-6	-42.078886
1.56118E-6	-42.073282
1.561225E-6	-42.028017
1.56127E-6	-41.957242
1.561315E-6	-41.90575
1.56136E-6	-41.894315
1.561405E-6	-41.897675
1.56145E-6	-41.894987
1.561495E-6	-41.885591
1.56154E-6	-41.892971
1.561585E-6	-41.907771
1.56163E-6	-41.963381
1.561675E-6	-42.043285
1.56172E-6	-42.099261
1.561765E-6	-42.109131
1.56181E-6	-42.118316
1.561855E-6	-42.125395
1.5619E-6	-42.142432
1.561945E-6	-42.14599
1.56199E-6	-42.131776
1.562035E-6	-42.098556
1.56208E-6	-42.046067
1.562125E-6	-41.989395
1.56217E-6	-41.979792
1.562215E-6	-41.968844
1.56226E-6	-41.954517
1.562305E-6	-41.967478
1.56235E-6	-41.955879
1.562395E-6	-41.977053
1.56244E-6	-42.019021
1.562485E-6	-42.083094
1.56253E-6	-42.135325
1.562575E-6	-42.160964
1.56262E-6	-42.164537
1.562665E-6	-42.182446
1.56271E-6	-42.198988
1.562755E-6	-42.193947
1.5628E-6	-42.174557
1.562845E-6	-42.143855
1.56289E-6	-42.090115
1.562935E-6	-42.048154
1.56298E-6	-42.030096
1.563025E-6	-42.030096
1.56307E-6	-42.025247
1.563115E-6	-42.028017
1.56316E-6	-42.024555
1.563205E-6	-42.047458
1.56325E-6	-42.086603
1.563295E-6	-42.133905
1.56334E-6	-42.188193
1.563385E-6	-42.214147
1.56343E-6	-42.232262
1.563475E-6	-42.241712
