Wavelength (nm)	Power (dBm)
1.525E-6	-73.026835
1.525045E-6	-73.14527
1.52509E-6	-73.649186
1.525135E-6	-75.456125
1.52518E-6	-78.674202
1.525225E-6	-81.845551
1.52527E-6	-84.793855
1.525315E-6	-83.46884
1.52536E-6	-83.815335
1.525405E-6	-84.503838
1.52545E-6	-82.653602
1.525495E-6	-79.318141
1.52554E-6	-74.234283
1.525585E-6	-72.479516
1.52563E-6	-71.676188
1.525675E-6	-71.581402
1.52572E-6	-71.391232
1.525765E-6	-71.306509
1.52581E-6	-71.263888
1.525855E-6	-71.575156
1.5259E-6	-72.937945
1.525945E-6	-76.635403
1.52599E-6	-80.22185
1.526035E-6	-84.231981
1.52608E-6	-85.230235
1.526125E-6	-84.678829
1.52617E-6	-85.244741
1.526215E-6	-84.361631
1.52626E-6	-79.347939
1.526305E-6	-73.404641
1.52635E-6	-71.260984
1.526395E-6	-70.38484
1.52644E-6	-70.260413
1.526485E-6	-70.132283
1.52653E-6	-70.086853
1.526575E-6	-70.024389
1.52662E-6	-70.133178
1.526665E-6	-71.137914
1.52671E-6	-74.195312
1.526755E-6	-79.400581
1.5268E-6	-82.025247
1.526845E-6	-85.001755
1.52689E-6	-84.718549
1.526935E-6	-84.302751
1.52698E-6	-83.389449
1.527025E-6	-79.982663
1.52707E-6	-73.408447
1.527115E-6	-70.399099
1.52716E-6	-69.270153
1.527205E-6	-68.951716
1.52725E-6	-68.931295
1.527295E-6	-68.745187
1.52734E-6	-68.758219
1.527385E-6	-68.857227
1.52743E-6	-69.54677
1.527475E-6	-71.904403
1.52752E-6	-76.518899
1.527565E-6	-80.558629
1.52761E-6	-83.703866
1.527655E-6	-86.569855
1.5277E-6	-84.546929
1.527745E-6	-85.543958
1.52779E-6	-80.699174
1.527835E-6	-73.714067
1.52788E-6	-70.00565
1.527925E-6	-68.41336
1.52797E-6	-67.975117
1.528015E-6	-67.89414
1.52806E-6	-67.9129
1.528105E-6	-67.759852
1.52815E-6	-67.867479
1.528195E-6	-68.297383
1.52824E-6	-70.10061
1.528285E-6	-74.390179
1.52833E-6	-79.023957
1.528375E-6	-82.576677
1.52842E-6	-82.572749
1.528465E-6	-85.529971
1.52851E-6	-83.957739
1.528555E-6	-81.809169
1.5286E-6	-74.602968
1.528645E-6	-69.969705
1.52869E-6	-67.705742
1.528735E-6	-67.189666
1.52878E-6	-67.144427
1.528825E-6	-67.020208
1.52887E-6	-66.987529
1.528915E-6	-67.009287
1.52896E-6	-67.337683
1.529005E-6	-68.658229
1.52905E-6	-71.848209
1.529095E-6	-78.623295
1.52914E-6	-81.806535
1.529185E-6	-83.611116
1.52923E-6	-82.790968
1.529275E-6	-83.889143
1.52932E-6	-84.585456
1.529365E-6	-76.337639
1.52941E-6	-70.609802
1.529455E-6	-67.612014
1.5295E-6	-66.742791
1.529545E-6	-66.540385
1.52959E-6	-66.435917
1.529635E-6	-66.307841
1.52968E-6	-66.352614
1.529725E-6	-66.430186
1.52977E-6	-67.432823
1.529815E-6	-69.771594
1.52986E-6	-74.92684
1.529905E-6	-79.812995
1.52995E-6	-83.87534
1.529995E-6	-83.737623
1.53004E-6	-83.938337
1.530085E-6	-84.015378
1.53013E-6	-79.175737
1.530175E-6	-71.699891
1.53022E-6	-68.124793
1.530265E-6	-66.460838
1.53031E-6	-66.131445
1.530355E-6	-66.11366
1.5304E-6	-65.972229
1.530445E-6	-66.03452
1.53049E-6	-66.024076
1.530535E-6	-66.567884
1.53058E-6	-68.674202
1.530625E-6	-71.968844
1.53067E-6	-78.544928
1.530715E-6	-81.141866
1.53076E-6	-83.147062
1.530805E-6	-84.775558
1.53085E-6	-84.655931
1.530895E-6	-82.250453
1.53094E-6	-73.549709
1.530985E-6	-68.754958
1.53103E-6	-66.445485
1.531075E-6	-65.919297
1.53112E-6	-65.767541
1.531165E-6	-65.805399
1.53121E-6	-65.762628
1.531255E-6	-65.790546
1.5313E-6	-66.053732
1.531345E-6	-67.567139
1.53139E-6	-70.413883
1.531435E-6	-76.232406
1.53148E-6	-80.807127
1.531525E-6	-84.212462
1.53157E-6	-84.053865
1.531615E-6	-83.870043
1.53166E-6	-83.147062
1.531705E-6	-75.914209
1.53175E-6	-70.071815
1.531795E-6	-66.946486
1.53184E-6	-65.979106
1.531885E-6	-65.865326
1.53193E-6	-65.851937
1.531975E-6	-65.83859
1.53202E-6	-65.830268
1.532065E-6	-65.973948
1.53211E-6	-66.825635
1.532155E-6	-69.389247
1.5322E-6	-73.510548
1.532245E-6	-78.787685
1.53229E-6	-83.613111
1.532335E-6	-84.535807
1.53238E-6	-82.334384
1.532425E-6	-83.709984
1.53247E-6	-80.556654
1.532515E-6	-72.111955
1.53256E-6	-68.187282
1.532605E-6	-66.326441
1.53265E-6	-65.980827
1.532695E-6	-65.88212
1.53274E-6	-65.985995
1.532785E-6	-65.924392
1.53283E-6	-66.069515
1.532875E-6	-66.482037
1.53292E-6	-68.407337
1.532965E-6	-71.751585
1.53301E-6	-77.567139
1.533055E-6	-82.080288
1.5331E-6	-83.613111
1.533145E-6	-84.475752
1.53319E-6	-83.314277
1.533235E-6	-82.559418
1.53328E-6	-74.949858
1.533325E-6	-69.93534
1.53337E-6	-67.342391
1.533415E-6	-66.579723
1.53346E-6	-66.455074
1.533505E-6	-66.462761
1.53355E-6	-66.466609
1.533595E-6	-66.560009
1.53364E-6	-66.827727
1.533685E-6	-67.92635
1.53373E-6	-70.480314
1.533775E-6	-75.398542
1.53382E-6	-79.554602
1.533865E-6	-83.746875
1.53391E-6	-83.331078
1.533955E-6	-84.353339
1.534E-6	-84.74178
1.534045E-6	-79.956786
1.53409E-6	-72.560984
1.534135E-6	-69.251836
1.53418E-6	-67.50557
1.534225E-6	-67.2262
1.53427E-6	-67.251497
1.534315E-6	-67.288557
1.53436E-6	-67.330631
1.534405E-6	-67.425614
1.53445E-6	-67.983298
1.534495E-6	-69.702105
1.53454E-6	-73.576344
1.534585E-6	-78.979095
1.53463E-6	-81.034187
1.534675E-6	-84.492826
1.53472E-6	-85.15131
1.534765E-6	-84.828041
1.53481E-6	-82.897134
1.534855E-6	-75.526869
1.5349E-6	-70.856568
1.534945E-6	-68.804142
1.53499E-6	-68.153086
1.535035E-6	-67.956087
1.53508E-6	-68.096683
1.535125E-6	-68.046539
1.53517E-6	-68.181564
1.535215E-6	-68.425432
1.53526E-6	-69.574245
1.535305E-6	-72.168829
1.53535E-6	-77.335331
1.535395E-6	-80.91247
1.53544E-6	-82.235894
1.535485E-6	-82.508823
1.53553E-6	-80.541869
1.535575E-6	-73.238553
1.53562E-6	-60.369681
1.535665E-6	-46.850799
1.53571E-6	-40.524683
1.535755E-6	-38.495506
1.5358E-6	-38.136088
1.535845E-6	-38.16161
1.53589E-6	-38.265224
1.535935E-6	-38.37137
1.53598E-6	-38.961963
1.536025E-6	-41.355483
1.53607E-6	-46.93575
1.536115E-6	-57.166988
1.53616E-6	-65.480601
1.536205E-6	-72.262136
1.53625E-6	-77.642191
1.536295E-6	-80.5532
1.53634E-6	-81.862189
1.536385E-6	-82.078886
1.53643E-6	-76.403542
1.536475E-6	-72.124687
1.53652E-6	-70.363538
1.536565E-6	-69.50782
1.53661E-6	-69.408154
1.536655E-6	-69.325572
1.5367E-6	-69.400581
1.536745E-6	-69.442395
1.53679E-6	-69.669786
1.536835E-6	-70.58588
1.53688E-6	-73.678465
1.536925E-6	-77.846268
1.53697E-6	-81.124952
1.537015E-6	-82.876029
1.53706E-6	-82.525105
1.537105E-6	-79.554602
1.53715E-6	-73.368647
1.537195E-6	-60.638383
1.53724E-6	-46.952941
1.537285E-6	-40.740694
1.53733E-6	-38.598063
1.537375E-6	-38.164455
1.53742E-6	-38.136088
1.537465E-6	-38.178708
1.53751E-6	-38.215987
1.537555E-6	-38.751699
1.5376E-6	-41.032534
1.537645E-6	-46.677636
1.53769E-6	-56.751005
1.537735E-6	-65.041782
1.53778E-6	-71.823024
1.537825E-6	-77.74174
1.53787E-6	-80.231
1.537915E-6	-81.980478
1.53796E-6	-81.66152
1.538005E-6	-76.726411
1.53805E-6	-72.692177
1.538095E-6	-70.798767
1.53814E-6	-69.931063
1.538185E-6	-69.875846
1.53823E-6	-69.829667
1.538275E-6	-70.007824
1.53832E-6	-69.931063
1.538365E-6	-70.136762
1.53841E-6	-70.988687
1.538455E-6	-73.7202
1.5385E-6	-78.241984
1.538545E-6	-80.618807
1.53859E-6	-82.603486
1.538635E-6	-82.027325
1.53868E-6	-80.85181
1.538725E-6	-73.962063
1.53877E-6	-62.032869
1.538815E-6	-48.116341
1.53886E-6	-41.138478
1.538905E-6	-38.90759
1.53895E-6	-38.344589
1.538995E-6	-38.236193
1.53904E-6	-38.239087
1.539085E-6	-38.23041
1.53913E-6	-38.576105
1.539175E-6	-40.613802
1.53922E-6	-45.793842
1.539265E-6	-55.434821
1.53931E-6	-64.05718
1.539355E-6	-71.435128
1.5394E-6	-77.382615
1.539445E-6	-80.293278
1.53949E-6	-82.016947
1.539535E-6	-81.731481
1.53958E-6	-78.554258
1.539625E-6	-72.861736
1.53967E-6	-70.656531
1.539715E-6	-69.846402
1.53976E-6	-69.718356
1.539805E-6	-69.653715
1.53985E-6	-69.649707
1.539895E-6	-69.657727
1.53994E-6	-69.796387
1.539985E-6	-70.663103
1.54003E-6	-73.292904
1.540075E-6	-77.337683
1.54012E-6	-80.868222
1.540165E-6	-81.635493
1.54021E-6	-83.287346
1.540255E-6	-80.601813
1.5403E-6	-75.066814
1.540345E-6	-64.422523
1.54039E-6	-49.154237
1.540435E-6	-41.590788
1.54048E-6	-39.027427
1.540525E-6	-38.294449
1.54057E-6	-38.127614
1.540615E-6	-38.079904
1.54066E-6	-38.032713
1.540705E-6	-38.335699
1.54075E-6	-40.124231
1.540795E-6	-44.744369
1.54084E-6	-53.896593
1.540885E-6	-62.553159
1.54093E-6	-70.223221
1.540975E-6	-76.34512
1.54102E-6	-79.637705
1.541065E-6	-81.832286
1.54111E-6	-82.76052
1.541155E-6	-79.097419
1.5412E-6	-72.951634
1.541245E-6	-70.4072
1.54129E-6	-69.329291
1.541335E-6	-69.122186
1.54138E-6	-69.08333
1.541425E-6	-69.051796
1.54147E-6	-69.017025
1.541515E-6	-69.143527
1.54156E-6	-69.854795
1.541605E-6	-72.035644
1.54165E-6	-75.961934
1.541695E-6	-80.236959
1.54174E-6	-82.870979
1.541785E-6	-82.498775
1.54183E-6	-82.037033
1.541875E-6	-76.103025
1.54192E-6	-68.057633
1.541965E-6	-51.086298
1.54201E-6	-42.203314
1.542055E-6	-39.182927
1.5421E-6	-38.297383
1.542145E-6	-38.105097
1.54219E-6	-38.010681
1.542235E-6	-37.986029
1.54228E-6	-38.107905
1.542325E-6	-39.333014
1.54237E-6	-43.036436
1.542415E-6	-50.687456
1.54246E-6	-61.756789
1.542505E-6	-69.04482
1.54255E-6	-74.812229
1.542595E-6	-79.722428
1.54264E-6	-81.52304
1.542685E-6	-81.859523
1.54273E-6	-79.706162
1.542775E-6	-73.540867
1.54282E-6	-70.273807
1.542865E-6	-69.04482
1.54291E-6	-68.655041
1.542955E-6	-68.59492
1.543E-6	-68.588639
1.543045E-6	-68.613816
1.54309E-6	-68.639139
1.543135E-6	-69.062282
1.54318E-6	-70.775341
1.543225E-6	-74.302751
1.54327E-6	-78.900841
1.543315E-6	-82.088008
1.54336E-6	-83.311484
1.543405E-6	-81.716624
1.54345E-6	-79.055289
1.543495E-6	-71.064602
1.54354E-6	-55.210009
1.543585E-6	-43.976144
1.54363E-6	-39.905491
1.543675E-6	-38.425432
1.54372E-6	-38.17015
1.543765E-6	-38.079904
1.54381E-6	-38.052082
1.543855E-6	-38.116341
1.5439E-6	-38.890738
1.543945E-6	-41.813783
1.54399E-6	-48.59492
1.544035E-6	-59.175737
1.54408E-6	-66.645421
1.544125E-6	-73.195738
1.54417E-6	-78.951716
1.544215E-6	-80.655015
1.54426E-6	-81.570789
1.544305E-6	-81.841567
1.54435E-6	-74.682657
1.544395E-6	-70.672726
1.54444E-6	-68.979095
1.544485E-6	-68.41336
1.54453E-6	-68.279812
1.544575E-6	-68.27689
1.54462E-6	-68.356471
1.544665E-6	-68.374356
1.54471E-6	-68.471004
1.544755E-6	-69.657727
1.5448E-6	-72.682501
1.544845E-6	-77.411234
1.54489E-6	-81.298888
1.544935E-6	-83.172234
1.54498E-6	-82.399547
1.545025E-6	-79.961088
1.54507E-6	-73.482376
1.545115E-6	-60.717066
1.54516E-6	-47.20105
1.545205E-6	-40.784696
1.54525E-6	-38.683813
1.545295E-6	-38.187282
1.54534E-6	-38.110715
1.545385E-6	-38.071539
1.54543E-6	-38.065971
1.545475E-6	-38.452718
1.54552E-6	-40.360234
1.545565E-6	-45.36555
1.54561E-6	-54.529641
1.545655E-6	-63.314277
1.5457E-6	-70.670699
1.545745E-6	-76.724367
1.54579E-6	-79.792245
1.545835E-6	-81.614027
1.54588E-6	-82.089413
1.545925E-6	-76.718243
1.54597E-6	-71.851533
1.546015E-6	-69.299621
1.54606E-6	-68.329782
1.546105E-6	-68.175853
1.54615E-6	-68.175853
1.546195E-6	-68.178708
1.54624E-6	-68.074325
1.546285E-6	-68.175853
1.54633E-6	-68.91435
1.546375E-6	-71.034738
1.54642E-6	-75.184141
1.546465E-6	-79.730584
1.54651E-6	-82.66562
1.546555E-6	-82.690563
1.5466E-6	-81.105302
1.546645E-6	-76.302277
1.54669E-6	-68.620133
1.546735E-6	-52.030096
1.54678E-6	-42.755603
1.546825E-6	-39.385475
1.54687E-6	-38.332739
1.546915E-6	-38.150248
1.54696E-6	-38.099486
1.547005E-6	-38.06041
1.54705E-6	-38.198741
1.547095E-6	-39.303319
1.54714E-6	-42.779422
1.547185E-6	-49.888526
1.54723E-6	-61.152046
1.547275E-6	-68.483238
1.54732E-6	-74.384216
1.547365E-6	-79.590023
1.54741E-6	-81.697964
1.547455E-6	-82.461107
1.5475E-6	-80.115748
1.547545E-6	-73.618104
1.54759E-6	-70.12155
1.547635E-6	-68.526329
1.54768E-6	-68.124793
1.547725E-6	-68.127614
1.54777E-6	-68.06041
1.547815E-6	-68.116341
1.54786E-6	-68.091083
1.547905E-6	-68.474059
1.54795E-6	-69.812995
1.547995E-6	-73.044308
1.54804E-6	-78.894103
1.548085E-6	-80.892689
1.54813E-6	-81.622853
1.548175E-6	-82.080288
1.54822E-6	-79.273825
1.548265E-6	-72.473371
1.54831E-6	-59.076303
1.548355E-6	-46.365761
1.5484E-6	-40.479829
1.548445E-6	-38.642315
1.54849E-6	-38.210231
1.548535E-6	-38.141746
1.54858E-6	-38.130437
1.548625E-6	-38.138916
1.54867E-6	-38.563608
1.548715E-6	-40.643416
1.54876E-6	-45.893915
1.548805E-6	-55.678327
1.54885E-6	-64.08824
1.548895E-6	-71.17988
1.54894E-6	-77.198771
1.548985E-6	-80.151128
1.54903E-6	-82.060002
1.549075E-6	-82.193227
1.54912E-6	-76.472388
1.549165E-6	-71.763302
1.54921E-6	-69.273825
1.549255E-6	-68.374356
1.5493E-6	-68.133261
1.549345E-6	-68.04931
1.54939E-6	-68.093882
1.549435E-6	-68.141746
1.54948E-6	-68.195874
1.549525E-6	-68.847224
1.54957E-6	-71.019883
1.549615E-6	-74.87449
1.54966E-6	-79.251836
1.549705E-6	-81.72954
1.54975E-6	-84.081566
1.549795E-6	-81.47581
1.54984E-6	-77.166988
1.549885E-6	-69.500071
1.54993E-6	-52.843309
1.549975E-6	-42.999023
1.55002E-6	-39.531148
1.550065E-6	-38.398317
1.55011E-6	-38.22175
1.550155E-6	-38.155925
1.5502E-6	-38.150248
1.550245E-6	-38.227522
1.55029E-6	-39.006647
1.550335E-6	-41.909793
1.55038E-6	-48.804142
1.550425E-6	-59.621752
1.55047E-6	-67.026773
1.550515E-6	-73.477537
1.55056E-6	-78.667805
1.550605E-6	-80.955008
1.55065E-6	-82.195387
1.550695E-6	-81.298303
1.55074E-6	-74.218194
1.550785E-6	-70.429677
1.55083E-6	-68.59492
1.550875E-6	-68.147412
1.55092E-6	-68.021683
1.550965E-6	-67.92635
1.55101E-6	-67.969671
1.551055E-6	-68.043771
1.5511E-6	-68.164455
1.551145E-6	-69.423339
1.55119E-6	-72.360482
1.551235E-6	-77.124222
1.55128E-6	-80.474013
1.551325E-6	-82.657604
1.55137E-6	-82.197547
1.551415E-6	-80.318908
1.55146E-6	-74.414114
1.551505E-6	-63.752024
1.55155E-6	-48.680607
1.551595E-6	-41.402614
1.55164E-6	-38.92112
1.551685E-6	-38.262312
1.55173E-6	-38.155925
1.551775E-6	-38.130437
1.55182E-6	-38.133261
1.551865E-6	-38.323873
1.55191E-6	-39.800533
1.551955E-6	-43.95882
1.552E-6	-52.175274
1.552045E-6	-61.304163
1.55209E-6	-68.968807
1.552135E-6	-75.851937
1.55218E-6	-79.164974
1.552225E-6	-81.524273
1.55227E-6	-82.327699
1.552315E-6	-79.653715
1.55236E-6	-72.898826
1.552405E-6	-69.574245
1.55245E-6	-68.178708
1.552495E-6	-67.90217
1.55254E-6	-67.880789
1.552585E-6	-67.891466
1.55263E-6	-67.859513
1.552675E-6	-67.864822
1.55272E-6	-68.294449
1.552765E-6	-69.863203
1.55281E-6	-73.230322
1.552855E-6	-78.035475
1.5529E-6	-80.733489
1.552945E-6	-82.607442
1.55299E-6	-82.298847
1.553035E-6	-79.237237
1.55308E-6	-72.183164
1.553125E-6	-58.501653
1.55317E-6	-44.878495
1.553215E-6	-40.282141
1.55326E-6	-38.551146
1.553305E-6	-38.164455
1.55335E-6	-38.127614
1.553395E-6	-38.071539
1.55344E-6	-38.088285
1.553485E-6	-38.501653
1.55353E-6	-40.564066
1.553575E-6	-45.62091
1.55362E-6	-54.936303
1.553665E-6	-63.440936
1.55371E-6	-70.607804
1.553755E-6	-76.831912
1.5538E-6	-80.122444
1.553845E-6	-81.405615
1.55389E-6	-86.813107
1.553935E-6	-76.631402
1.55398E-6	-71.519341
1.554025E-6	-68.887375
1.55407E-6	-68.002448
1.554115E-6	-67.687854
1.55416E-6	-67.736579
1.554205E-6	-67.734001
1.55425E-6	-67.705742
1.554295E-6	-67.791078
1.55434E-6	-68.374356
1.554385E-6	-70.345631
1.55443E-6	-74.430947
1.554475E-6	-78.53252
1.55452E-6	-82.456517
1.554565E-6	-82.730284
1.55461E-6	-81.921269
1.554655E-6	-78.155925
1.5547E-6	-70.292348
1.554745E-6	-54.428539
1.55479E-6	-43.489159
1.554835E-6	-39.661743
1.55488E-6	-38.392314
1.554925E-6	-38.144578
1.55497E-6	-38.071539
1.555015E-6	-38.041003
1.55506E-6	-38.079904
1.555105E-6	-38.658229
1.55515E-6	-41.038046
1.555195E-6	-47.113037
1.55524E-6	-57.520267
1.555285E-6	-65.499049
1.55533E-6	-72.138167
1.555375E-6	-78.449678
1.55542E-6	-81.209041
1.555465E-6	-81.258082
1.55551E-6	-81.320025
1.555555E-6	-75.406075
1.5556E-6	-70.641402
1.555645E-6	-68.428456
1.55569E-6	-67.624563
1.555735E-6	-67.589518
1.55578E-6	-67.481185
1.555825E-6	-67.512913
1.55587E-6	-67.4958
1.555915E-6	-67.670039
1.55596E-6	-68.398317
1.556005E-6	-70.690001
1.55605E-6	-74.870489
1.556095E-6	-79.484616
1.55614E-6	-81.489864
1.556185E-6	-83.289198
1.55623E-6	-81.191293
1.556275E-6	-76.136794
1.55632E-6	-68.867253
1.556365E-6	-52.023171
1.55641E-6	-42.647206
1.556455E-6	-39.325572
1.5565E-6	-38.265224
1.556545E-6	-38.099486
1.55659E-6	-38.029953
1.556635E-6	-38.043771
1.55668E-6	-38.099486
1.556725E-6	-38.797552
1.55677E-6	-41.502122
1.556815E-6	-48.285661
1.55686E-6	-58.569852
1.556905E-6	-66.276404
1.55695E-6	-72.721336
1.556995E-6	-78.735439
1.55704E-6	-80.685421
1.557085E-6	-82.261404
1.55713E-6	-81.644362
1.557175E-6	-75.059846
1.55722E-6	-70.231917
1.557265E-6	-68.288588
1.55731E-6	-67.619539
1.557355E-6	-67.452103
1.5574E-6	-67.469044
1.557445E-6	-67.612014
1.55749E-6	-67.512913
1.557535E-6	-67.723704
1.55758E-6	-68.671002
1.557625E-6	-70.764969
1.55767E-6	-75.424209
1.557715E-6	-79.219058
1.55776E-6	-81.980478
1.557805E-6	-83.042557
1.55785E-6	-81.349553
1.557895E-6	-75.845258
1.55794E-6	-67.996968
1.557985E-6	-51.437546
1.55803E-6	-42.451168
1.558075E-6	-39.222688
1.55812E-6	-38.195874
1.558165E-6	-38.010681
1.55821E-6	-37.994231
1.558255E-6	-38.013429
1.5583E-6	-38.091083
1.558345E-6	-38.8706
1.55839E-6	-41.772437
1.558435E-6	-48.664611
1.55848E-6	-58.989406
1.558525E-6	-66.395959
1.55857E-6	-73.00249
1.558615E-6	-79.344203
1.55866E-6	-80.843891
1.558705E-6	-81.507035
1.55875E-6	-81.596429
1.558795E-6	-74.641997
1.55884E-6	-70.601813
1.558885E-6	-68.486301
1.55893E-6	-67.721133
1.558975E-6	-67.81202
1.55902E-6	-67.87546
1.559065E-6	-67.791078
1.55911E-6	-67.840982
1.559155E-6	-67.90485
1.5592E-6	-68.758219
1.559245E-6	-71.106983
1.55929E-6	-75.44546
1.559335E-6	-80.010436
1.55938E-6	-82.973972
1.559425E-6	-82.683307
1.55947E-6	-81.399017
1.559515E-6	-76.435917
1.55956E-6	-68.880657
1.559605E-6	-52.369466
1.55965E-6	-42.869297
1.559695E-6	-39.535048
1.55974E-6	-38.41336
1.559785E-6	-38.265224
1.55983E-6	-38.285661
1.559875E-6	-38.326827
1.55992E-6	-38.431481
1.559965E-6	-39.211808
1.56001E-6	-42.107014
1.560055E-6	-49.104481
1.5601E-6	-59.601894
1.560145E-6	-67.031155
1.56019E-6	-73.880644
1.560235E-6	-78.23041
1.56028E-6	-81.182731
1.560325E-6	-82.933675
1.56037E-6	-81.348368
1.560415E-6	-75.326879
1.56046E-6	-71.051857
1.560505E-6	-68.985966
1.56055E-6	-68.401322
1.560595E-6	-68.282735
1.56064E-6	-68.265224
1.560685E-6	-68.323873
1.56073E-6	-68.407337
1.560775E-6	-68.477117
1.56082E-6	-69.222688
1.560865E-6	-71.570165
1.56091E-6	-76.221476
1.560955E-6	-80.200421
1.561E-6	-83.332013
1.561045E-6	-83.213906
1.56109E-6	-83.557584
1.561135E-6	-82.903061
1.56118E-6	-82.888679
1.561225E-6	-76.714166
1.56127E-6	-71.551502
1.561315E-6	-69.503944
1.56136E-6	-68.777841
1.561405E-6	-68.671002
1.56145E-6	-68.728952
1.561495E-6	-68.661419
1.56154E-6	-68.703101
1.561585E-6	-68.807441
1.56163E-6	-69.653715
1.561675E-6	-71.878222
1.56172E-6	-75.96022
1.561765E-6	-80.245222
1.56181E-6	-83.657243
1.561855E-6	-83.94695
1.5619E-6	-84.683934
1.561945E-6	-84.119525
1.56199E-6	-83.0103
1.562035E-6	-77.07301
1.56208E-6	-72.4071
1.562125E-6	-69.995659
1.56217E-6	-69.329291
1.562215E-6	-69.104481
1.56226E-6	-69.100949
1.562305E-6	-69.122186
1.56235E-6	-69.122186
1.562395E-6	-69.329291
1.56244E-6	-69.812995
1.562485E-6	-71.761998
1.56253E-6	-75.644741
1.562575E-6	-79.792245
1.56262E-6	-82.343314
1.562665E-6	-85.113083
1.56271E-6	-84.793855
1.562755E-6	-87.599502
1.5628E-6	-83.924378
1.562845E-6	-78.804142
1.56289E-6	-73.086532
1.562935E-6	-70.664621
1.56298E-6	-69.755143
1.563025E-6	-69.637705
1.56307E-6	-69.613798
1.563115E-6	-69.605859
1.56316E-6	-69.669786
1.563205E-6	-69.767475
1.56325E-6	-70.252581
1.563295E-6	-72.046762
1.56334E-6	-75.835259
1.563385E-6	-79.593977
1.56343E-6	-83.456309
