Wavelength (nm)	Power (dBm)
1.525E-6	-72.536772
1.525045E-6	-72.546909
1.52509E-6	-72.890369
1.525135E-6	-74.715976
1.52518E-6	-78.961963
1.525225E-6	-82.211255
1.52527E-6	-85.097605
1.525315E-6	-89.200955
1.52536E-6	-85.723516
1.525405E-6	-86.154674
1.52545E-6	-83.764406
1.525495E-6	-78.31208
1.52554E-6	-73.72327
1.525585E-6	-72.00246
1.52563E-6	-71.334764
1.525675E-6	-71.232627
1.52572E-6	-71.070154
1.525765E-6	-70.839674
1.52581E-6	-70.760828
1.525855E-6	-71.023729
1.5259E-6	-72.568039
1.525945E-6	-76.631402
1.52599E-6	-80.228711
1.526035E-6	-84.201021
1.52608E-6	-85.830268
1.526125E-6	-83.834195
1.52617E-6	-85.389519
1.526215E-6	-84.599209
1.52626E-6	-78.329782
1.526305E-6	-72.839131
1.52635E-6	-70.727323
1.526395E-6	-69.92679
1.52644E-6	-69.825493
1.526485E-6	-69.718356
1.52653E-6	-69.566377
1.526575E-6	-69.434763
1.52662E-6	-69.641702
1.526665E-6	-70.711435
1.52671E-6	-73.714067
1.526755E-6	-78.857227
1.5268E-6	-83.684548
1.526845E-6	-85.84359
1.52689E-6	-84.071573
1.526935E-6	-85.427238
1.52698E-6	-86.675615
1.527025E-6	-79.314431
1.52707E-6	-72.423004
1.527115E-6	-69.850597
1.52716E-6	-68.768019
1.527205E-6	-68.44664
1.52725E-6	-68.437538
1.527295E-6	-68.389316
1.52734E-6	-68.329782
1.527385E-6	-68.401322
1.52743E-6	-69.211808
1.527475E-6	-71.577029
1.52752E-6	-76.178028
1.527565E-6	-81.126641
1.52761E-6	-84.585456
1.527655E-6	-84.835969
1.5277E-6	-83.867926
1.527745E-6	-85.198493
1.52779E-6	-80.538426
1.527835E-6	-73.05044
1.52788E-6	-69.453869
1.527925E-6	-67.942545
1.52797E-6	-67.527635
1.528015E-6	-67.435228
1.52806E-6	-67.425614
1.528105E-6	-67.435228
1.52815E-6	-67.459355
1.528195E-6	-68.013429
1.52824E-6	-69.817157
1.528285E-6	-74.041732
1.52833E-6	-78.712777
1.528375E-6	-82.175274
1.52842E-6	-84.052761
1.528465E-6	-85.164127
1.52851E-6	-85.194182
1.528555E-6	-82.03495
1.5286E-6	-74.028535
1.528645E-6	-69.519468
1.52869E-6	-67.416022
1.528735E-6	-66.751005
1.52878E-6	-66.699923
1.528825E-6	-66.671577
1.52887E-6	-66.583677
1.528915E-6	-66.651443
1.52896E-6	-66.903698
1.529005E-6	-68.44057
1.52905E-6	-71.6469
1.529095E-6	-77.283907
1.52914E-6	-81.648804
1.529185E-6	-85.22734
1.52923E-6	-82.740067
1.529275E-6	-81.090762
1.52932E-6	-74.762535
1.529365E-6	-59.161392
1.52941E-6	-48.59492
1.529455E-6	-43.841551
1.5295E-6	-42.429078
1.529545E-6	-42.067686
1.52959E-6	-41.990081
1.529635E-6	-41.848209
1.52968E-6	-41.91789
1.529725E-6	-42.740067
1.52977E-6	-45.782316
1.529815E-6	-52.182446
1.52986E-6	-61.071266
1.529905E-6	-69.956786
1.52995E-6	-77.061956
1.529995E-6	-80.656026
1.53004E-6	-82.919192
1.530085E-6	-83.373366
1.53013E-6	-76.746896
1.530175E-6	-71.294205
1.53022E-6	-67.454519
1.530265E-6	-66.151092
1.53031E-6	-65.747919
1.530355E-6	-65.726762
1.5304E-6	-65.721894
1.530445E-6	-65.678327
1.53049E-6	-65.743028
1.530535E-6	-66.36388
1.53058E-6	-68.477117
1.530625E-6	-72.373965
1.53067E-6	-78.551146
1.530715E-6	-82.31806
1.53076E-6	-84.388986
1.530805E-6	-84.149907
1.53085E-6	-79.905491
1.530895E-6	-71.02923
1.53094E-6	-54.160082
1.530985E-6	-46.609463
1.53103E-6	-43.07682
1.531075E-6	-42.233714
1.53112E-6	-42.014184
1.531165E-6	-42.016256
1.53121E-6	-41.935487
1.531255E-6	-42.050243
1.5313E-6	-43.432312
1.531345E-6	-47.221617
1.53139E-6	-55.184141
1.531435E-6	-64.364003
1.53148E-6	-72.335128
1.531525E-6	-79.147094
1.53157E-6	-81.290112
1.531615E-6	-82.211978
1.53166E-6	-83.065369
1.531705E-6	-75.22011
1.53175E-6	-69.669786
1.531795E-6	-66.542343
1.53184E-6	-65.686362
1.531885E-6	-65.503673
1.53193E-6	-65.540846
1.531975E-6	-65.529971
1.53202E-6	-65.551748
1.532065E-6	-65.625666
1.53211E-6	-66.5738
1.532155E-6	-69.211808
1.5322E-6	-73.787198
1.532245E-6	-78.975663
1.53229E-6	-82.937945
1.532335E-6	-82.718086
1.53238E-6	-83.012907
1.532425E-6	-76.957249
1.53247E-6	-65.989443
1.532515E-6	-51.478251
1.53256E-6	-44.789927
1.532605E-6	-42.564902
1.53265E-6	-42.001083
1.532695E-6	-41.939558
1.53274E-6	-41.936165
1.532785E-6	-41.979107
1.53283E-6	-42.372464
1.532875E-6	-44.153296
1.53292E-6	-48.860566
1.532965E-6	-57.856861
1.53301E-6	-66.683703
1.533055E-6	-73.876401
1.5331E-6	-79.37418
1.533145E-6	-82.178141
1.53319E-6	-83.994627
1.533235E-6	-82.930263
1.53328E-6	-74.45632
1.533325E-6	-69.457701
1.53337E-6	-66.769543
1.533415E-6	-66.083593
1.53346E-6	-65.953373
1.533505E-6	-65.973948
1.53355E-6	-66.058987
1.533595E-6	-66.147513
1.53364E-6	-66.443569
1.533685E-6	-67.624563
1.53373E-6	-70.095279
1.533775E-6	-75.489815
1.53382E-6	-80.301649
1.533865E-6	-83.622102
1.53391E-6	-84.367563
1.533955E-6	-82.38448
1.534E-6	-76.617428
1.534045E-6	-64.24235
1.53409E-6	-50.44168
1.534135E-6	-44.277094
1.53418E-6	-42.30475
1.534225E-6	-41.934131
1.53427E-6	-41.957242
1.534315E-6	-42.015565
1.53436E-6	-42.121854
1.534405E-6	-42.717274
1.53445E-6	-45.01276
1.534495E-6	-50.02701
1.53454E-6	-60.247061
1.534585E-6	-68.566729
1.53463E-6	-75.503673
1.534675E-6	-79.673812
1.53472E-6	-82.709162
1.534765E-6	-83.957739
1.53481E-6	-81.314143
1.534855E-6	-74.863829
1.5349E-6	-70.317506
1.534945E-6	-68.099486
1.53499E-6	-67.522722
1.535035E-6	-67.515363
1.53508E-6	-67.634627
1.535125E-6	-67.639669
1.53517E-6	-67.634627
1.535215E-6	-67.864822
1.53526E-6	-69.122186
1.535305E-6	-71.957242
1.53535E-6	-77.330631
1.535395E-6	-81.124952
1.53544E-6	-83.279021
1.535485E-6	-82.82829
1.53553E-6	-81.898347
1.535575E-6	-78.563608
1.53562E-6	-62.992963
1.535665E-6	-50.066079
1.53571E-6	-44.058285
1.535755E-6	-42.181011
1.5358E-6	-41.855526
1.535845E-6	-41.876884
1.53589E-6	-41.947711
1.535935E-6	-42.076784
1.53598E-6	-42.749055
1.536025E-6	-45.205687
1.53607E-6	-50.307239
1.536115E-6	-61.150914
1.53616E-6	-69.219058
1.536205E-6	-75.944829
1.53625E-6	-79.812995
1.536295E-6	-82.710784
1.53634E-6	-83.632113
1.536385E-6	-82.663213
1.53643E-6	-76.039751
1.536475E-6	-71.357857
1.53652E-6	-69.469216
1.536565E-6	-68.847224
1.53661E-6	-68.860566
1.536655E-6	-68.787685
1.5367E-6	-68.938091
1.536745E-6	-68.904215
1.53679E-6	-69.129288
1.536835E-6	-70.394817
1.53688E-6	-73.20663
1.536925E-6	-77.961515
1.53697E-6	-81.623484
1.537015E-6	-83.811155
1.53706E-6	-83.139002
1.537105E-6	-83.347944
1.53715E-6	-76.076548
1.537195E-6	-63.212086
1.53724E-6	-50.106392
1.537285E-6	-44.23083
1.53733E-6	-42.252641
1.537375E-6	-41.860856
1.53742E-6	-41.863523
1.537465E-6	-41.909793
1.53751E-6	-41.942953
1.537555E-6	-42.474138
1.5376E-6	-44.849213
1.537645E-6	-50.074907
1.53769E-6	-60.794593
1.537735E-6	-68.817353
1.53778E-6	-75.721894
1.537825E-6	-79.605859
1.53787E-6	-82.06489
1.537915E-6	-82.430598
1.53796E-6	-82.745784
1.538005E-6	-76.643415
1.53805E-6	-72.270185
1.538095E-6	-70.169604
1.53814E-6	-69.465374
1.538185E-6	-69.450041
1.53823E-6	-69.377942
1.538275E-6	-69.389247
1.53832E-6	-69.389247
1.538365E-6	-69.601894
1.53841E-6	-70.607804
1.538455E-6	-73.426573
1.5385E-6	-78.827287
1.538545E-6	-82.018329
1.53859E-6	-82.758061
1.538635E-6	-83.701828
1.53868E-6	-81.676188
1.538725E-6	-78.213108
1.53877E-6	-64.718549
1.538815E-6	-51.258082
1.53886E-6	-44.655931
1.538905E-6	-42.57825
1.53895E-6	-42.100669
1.538995E-6	-42.037033
1.53904E-6	-41.989395
1.539085E-6	-41.977053
1.53913E-6	-42.366469
1.539175E-6	-44.49894
1.53922E-6	-49.222688
1.539265E-6	-59.542859
1.53931E-6	-68.16161
1.539355E-6	-75.025175
1.5394E-6	-79.186527
1.539445E-6	-82.844144
1.53949E-6	-85.4546
1.539535E-6	-79.677843
1.53958E-6	-76.753061
1.539625E-6	-72.346295
1.53967E-6	-70.089512
1.539715E-6	-69.370422
1.53976E-6	-69.154237
1.539805E-6	-69.147094
1.53985E-6	-69.147094
1.539895E-6	-69.157813
1.53994E-6	-69.251836
1.539985E-6	-70.242007
1.54003E-6	-72.939653
1.540075E-6	-77.654827
1.54012E-6	-80.566044
1.540165E-6	-84.244658
1.54021E-6	-82.721336
1.540255E-6	-83.78616
1.5403E-6	-79.266483
1.540345E-6	-68.498578
1.54039E-6	-52.422245
1.540435E-6	-45.164127
1.54048E-6	-42.711594
1.540525E-6	-42.089413
1.54057E-6	-41.918566
1.540615E-6	-41.85819
1.54066E-6	-41.844887
1.540705E-6	-42.099261
1.54075E-6	-43.997897
1.540795E-6	-48.699881
1.54084E-6	-57.988761
1.540885E-6	-66.515004
1.54093E-6	-74.076012
1.540975E-6	-79.480761
1.54102E-6	-82.016256
1.541065E-6	-81.905076
1.54111E-6	-84.501388
1.541155E-6	-78.335699
1.5412E-6	-72.445063
1.541245E-6	-69.817157
1.54129E-6	-68.807441
1.541335E-6	-68.551146
1.54138E-6	-68.477117
1.541425E-6	-68.535619
1.54147E-6	-68.480176
1.541515E-6	-68.642315
1.54156E-6	-69.427144
1.541605E-6	-71.543439
1.54165E-6	-76.328305
1.541695E-6	-79.978339
1.54174E-6	-83.778896
1.541785E-6	-83.560541
1.54183E-6	-82.262867
1.541875E-6	-79.821323
1.54192E-6	-70.763416
1.541965E-6	-53.940488
1.54201E-6	-46.49752
1.542055E-6	-43.039933
1.5421E-6	-42.198988
1.542145E-6	-42.006595
1.54219E-6	-41.944991
1.542235E-6	-41.927356
1.54228E-6	-42.031483
1.542325E-6	-43.303113
1.54237E-6	-47.059749
1.542415E-6	-54.824083
1.54246E-6	-63.568435
1.542505E-6	-71.797985
1.54255E-6	-78.398317
1.542595E-6	-81.252863
1.54264E-6	-83.660268
1.542685E-6	-82.876871
1.54273E-6	-79.734667
1.542775E-6	-73.029451
1.54282E-6	-69.730584
1.542865E-6	-68.51089
1.54291E-6	-68.173001
1.542955E-6	-68.127614
1.543E-6	-68.136088
1.543045E-6	-68.035475
1.54309E-6	-68.08549
1.543135E-6	-68.642315
1.54318E-6	-70.381519
1.543225E-6	-74.453897
1.54327E-6	-78.544928
1.543315E-6	-82.462638
1.54336E-6	-84.619292
1.543405E-6	-84.012095
1.54345E-6	-81.255182
1.543495E-6	-73.860525
1.54354E-6	-58.477117
1.543585E-6	-48.099486
1.54363E-6	-43.503731
1.543675E-6	-42.173841
1.54372E-6	-41.922621
1.543765E-6	-41.860189
1.54381E-6	-41.841567
1.543855E-6	-41.88358
1.5439E-6	-42.735988
1.543945E-6	-45.704092
1.54399E-6	-52.052332
1.544035E-6	-60.819172
1.54408E-6	-69.75925
1.544125E-6	-76.561977
1.54417E-6	-80.879374
1.544215E-6	-82.101374
1.54426E-6	-83.318005
1.544305E-6	-81.719204
1.54435E-6	-73.885954
1.544395E-6	-70.021333
1.54444E-6	-68.38632
1.544485E-6	-67.867479
1.54453E-6	-67.759852
1.544575E-6	-67.77804
1.54462E-6	-67.731424
1.544665E-6	-67.840982
1.54471E-6	-68.136088
1.544755E-6	-69.442395
1.5448E-6	-72.408612
1.544845E-6	-77.599502
1.54489E-6	-81.999018
1.544935E-6	-82.775306
1.54498E-6	-84.24235
1.545025E-6	-82.280453
1.54507E-6	-76.689778
1.545115E-6	-63.478504
1.54516E-6	-50.559617
1.545205E-6	-44.451476
1.54525E-6	-42.44049
1.545295E-6	-41.962016
1.54534E-6	-41.89902
1.545385E-6	-41.889615
1.54543E-6	-41.867527
1.545475E-6	-42.274583
1.54552E-6	-44.203307
1.545565E-6	-49.172146
1.54561E-6	-58.401322
1.545655E-6	-67.137681
1.5457E-6	-74.045038
1.545745E-6	-79.197344
1.54579E-6	-82.111955
1.545835E-6	-83.19302
1.54588E-6	-83.012907
1.545925E-6	-76.360122
1.54597E-6	-71.410419
1.546015E-6	-68.725712
1.54606E-6	-67.856861
1.546105E-6	-67.675121
1.54615E-6	-67.649768
1.546195E-6	-67.662426
1.54624E-6	-67.687854
1.546285E-6	-67.754669
1.54633E-6	-68.582368
1.546375E-6	-70.821795
1.54642E-6	-75.122961
1.546465E-6	-79.718356
1.54651E-6	-83.740705
1.546555E-6	-83.122036
1.5466E-6	-83.046059
1.546645E-6	-79.817157
1.54669E-6	-71.537866
1.546735E-6	-55.0515
1.54678E-6	-46.914356
1.546825E-6	-43.072412
1.54687E-6	-42.120439
1.546915E-6	-41.973631
1.54696E-6	-41.937522
1.547005E-6	-41.885591
1.54705E-6	-42.013494
1.547095E-6	-43.190303
1.54714E-6	-46.710091
1.547185E-6	-53.863696
1.54723E-6	-62.955921
1.547275E-6	-71.584528
1.54732E-6	-77.867479
1.547365E-6	-81.045222
1.54741E-6	-82.743333
1.547455E-6	-83.768541
1.5475E-6	-80.491485
1.547545E-6	-73.156934
1.54759E-6	-69.511699
1.547635E-6	-68.068754
1.54768E-6	-67.644716
1.547725E-6	-67.647241
1.54777E-6	-67.71343
1.547815E-6	-67.535014
1.54786E-6	-67.627077
1.547905E-6	-68.068754
1.54795E-6	-69.681877
1.547995E-6	-72.938799
1.54804E-6	-78.210231
1.548085E-6	-81.225711
1.54813E-6	-84.048346
1.548175E-6	-84.346245
1.54822E-6	-82.288537
1.548265E-6	-75.425723
1.54831E-6	-61.264469
1.548355E-6	-49.566377
1.5484E-6	-44.154426
1.548445E-6	-42.395021
1.54849E-6	-42.071183
1.548535E-6	-42.037033
1.54858E-6	-41.984591
1.548625E-6	-42.005905
1.54867E-6	-42.438205
1.548715E-6	-44.589202
1.54876E-6	-49.519468
1.548805E-6	-59.888526
1.54885E-6	-68.007935
1.548895E-6	-74.854522
1.54894E-6	-79.168559
1.548985E-6	-82.240984
1.54903E-6	-83.312415
1.549075E-6	-82.600323
1.54912E-6	-76.605486
1.549165E-6	-71.163953
1.54921E-6	-68.690233
1.549255E-6	-67.785858
1.5493E-6	-67.639669
1.549345E-6	-67.624563
1.54939E-6	-67.639669
1.549435E-6	-67.599502
1.54948E-6	-67.798919
1.549525E-6	-68.551146
1.54957E-6	-70.491485
1.549615E-6	-74.793855
1.54966E-6	-79.500071
1.549705E-6	-83.470771
1.54975E-6	-84.2159
1.549795E-6	-83.121145
1.54984E-6	-80.119764
1.549885E-6	-72.034257
1.54993E-6	-55.492891
1.549975E-6	-46.96372
1.55002E-6	-43.155137
1.550065E-6	-42.198988
1.55011E-6	-42.004527
1.550155E-6	-41.951113
1.5502E-6	-41.996266
1.550245E-6	-42.0412
1.55029E-6	-42.830789
1.550335E-6	-45.797141
1.55038E-6	-52.250453
1.550425E-6	-61.067932
1.55047E-6	-69.922522
1.550515E-6	-76.918626
1.55056E-6	-80.111736
1.550605E-6	-82.3905
1.55065E-6	-83.543813
1.550695E-6	-80.862391
1.55074E-6	-73.841551
1.550785E-6	-69.854795
1.55083E-6	-68.198741
1.550875E-6	-67.649768
1.55092E-6	-67.508016
1.550965E-6	-67.607005
1.55101E-6	-67.527635
1.551055E-6	-67.562181
1.5511E-6	-67.796304
1.551145E-6	-69.108016
1.55119E-6	-71.872203
1.551235E-6	-76.940041
1.55128E-6	-81.017137
1.551325E-6	-82.98432
1.55137E-6	-84.441803
1.551415E-6	-82.456517
1.55146E-6	-78.428456
1.551505E-6	-66.006725
1.55155E-6	-51.672995
1.551595E-6	-45.003129
1.55164E-6	-42.67365
1.551685E-6	-42.133905
1.55173E-6	-42.054422
1.551775E-6	-41.994891
1.55182E-6	-41.996954
1.551865E-6	-42.213424
1.55191E-6	-43.682519
1.551955E-6	-47.870138
1.552E-6	-56.230582
1.552045E-6	-65.181276
1.55209E-6	-72.804201
1.552135E-6	-79.336741
1.55218E-6	-81.360826
1.552225E-6	-83.29105
1.55227E-6	-83.72839
1.552315E-6	-79.381707
1.55236E-6	-72.222108
1.552405E-6	-69.065783
1.55245E-6	-67.801536
1.552495E-6	-67.377863
1.55254E-6	-67.384992
1.552585E-6	-67.377863
1.55263E-6	-67.399286
1.552675E-6	-67.47147
1.55272E-6	-67.867479
1.552765E-6	-69.629721
1.55281E-6	-73.083881
1.552855E-6	-78.244882
1.5529E-6	-81.560202
1.552945E-6	-83.859469
1.55299E-6	-83.641143
1.553035E-6	-81.574532
1.55308E-6	-75.194182
1.553125E-6	-61.078497
1.55317E-6	-49.125735
1.553215E-6	-43.884891
1.55326E-6	-42.268721
1.553305E-6	-41.972263
1.55335E-6	-41.915189
1.553395E-6	-41.845551
1.55344E-6	-41.872203
1.553485E-6	-42.304012
1.55353E-6	-44.409317
1.553575E-6	-49.058784
1.55362E-6	-58.989406
1.553665E-6	-67.205612
1.55371E-6	-74.218194
1.553755E-6	-79.010104
1.5538E-6	-81.863523
1.553845E-6	-83.504704
1.55389E-6	-82.175274
1.553935E-6	-76.156466
1.55398E-6	-70.849697
1.554025E-6	-68.395315
1.55407E-6	-67.373117
1.554115E-6	-67.311881
1.55416E-6	-67.279262
1.554205E-6	-67.304871
1.55425E-6	-67.242281
1.554295E-6	-67.33298
1.55434E-6	-67.93714
1.554385E-6	-70.05991
1.55443E-6	-74.086014
1.554475E-6	-78.92112
1.55452E-6	-82.445063
1.554565E-6	-83.589227
1.55461E-6	-82.727028
1.554655E-6	-80.339991
1.5547E-6	-73.211176
1.554745E-6	-57.146678
1.55479E-6	-47.788467
1.554835E-6	-43.512498
1.55488E-6	-42.359734
1.554925E-6	-42.062096
1.55497E-6	-42.045371
1.555015E-6	-42.011423
1.55506E-6	-42.005905
1.555105E-6	-42.605068
1.55515E-6	-45.022413
1.555195E-6	-50.630843
1.55524E-6	-61.556471
1.555285E-6	-69.168559
1.55533E-6	-75.448505
1.555375E-6	-79.863203
1.55542E-6	-82.711594
1.555465E-6	-82.855026
1.55551E-6	-82.742517
1.555555E-6	-74.761235
1.5556E-6	-70.048037
1.555645E-6	-67.8199
1.55569E-6	-67.14893
1.555735E-6	-67.10634
1.55578E-6	-67.061956
1.555825E-6	-67.050931
1.55587E-6	-67.160207
1.555915E-6	-67.244583
1.55596E-6	-68.029953
1.556005E-6	-70.438316
1.55605E-6	-75.241836
1.556095E-6	-79.465374
1.55614E-6	-82.082392
1.556185E-6	-85.086383
1.55623E-6	-84.076012
1.556275E-6	-80.171411
1.55632E-6	-71.641193
1.556365E-6	-54.93901
1.55641E-6	-46.85922
1.556455E-6	-43.100699
1.5565E-6	-42.165252
1.556545E-6	-41.999018
1.55659E-6	-41.91789
1.556635E-6	-41.914514
1.55668E-6	-42.020404
1.556725E-6	-42.738435
1.55677E-6	-45.437858
1.556815E-6	-51.565181
1.55686E-6	-62.432878
1.556905E-6	-69.013563
1.55695E-6	-76.239708
1.556995E-6	-80.147532
1.55704E-6	-82.455752
1.557085E-6	-81.710824
1.55713E-6	-80.387688
1.557175E-6	-73.867926
1.55722E-6	-69.783973
1.557265E-6	-67.708303
1.55731E-6	-67.21475
1.557355E-6	-67.113037
1.5574E-6	-67.142177
1.557445E-6	-67.110804
1.55749E-6	-67.144427
1.557535E-6	-67.260732
1.55758E-6	-68.392314
1.557625E-6	-70.604308
1.55767E-6	-75.551748
1.557715E-6	-79.446217
1.55776E-6	-83.446694
1.557805E-6	-83.931889
1.55785E-6	-82.543008
1.557895E-6	-79.714287
1.55794E-6	-70.856568
1.557985E-6	-54.244658
1.55803E-6	-46.587634
1.558075E-6	-42.937945
1.55812E-6	-42.020404
1.558165E-6	-41.842895
1.55821E-6	-41.824346
1.558255E-6	-41.868195
1.5583E-6	-41.934809
1.558345E-6	-42.72947
1.55839E-6	-45.639965
1.558435E-6	-51.842231
1.55848E-6	-60.950682
1.558525E-6	-69.321855
1.55857E-6	-76.371407
1.558615E-6	-79.779843
1.55866E-6	-82.367218
1.558705E-6	-84.626847
1.55875E-6	-81.892971
1.558795E-6	-74.497716
1.55884E-6	-69.913998
1.558885E-6	-68.046539
1.55893E-6	-67.361273
1.558975E-6	-67.330631
1.55902E-6	-67.354183
1.559065E-6	-67.392133
1.55911E-6	-67.293212
1.559155E-6	-67.459355
1.5592E-6	-68.477117
1.559245E-6	-70.896424
1.55929E-6	-75.694412
1.559335E-6	-80.045403
1.55938E-6	-83.368647
1.559425E-6	-83.816381
1.55947E-6	-83.186683
1.559515E-6	-80.369681
1.55956E-6	-71.71469
1.559605E-6	-55.032087
1.55965E-6	-46.931463
1.559695E-6	-43.095381
1.55974E-6	-42.116902
1.559785E-6	-41.958606
1.55983E-6	-41.993516
1.559875E-6	-42.057211
1.55992E-6	-42.115488
1.559965E-6	-42.954206
1.56001E-6	-45.970512
1.560055E-6	-52.400301
1.5601E-6	-61.256922
1.560145E-6	-69.706162
1.56019E-6	-76.667543
1.560235E-6	-80.182267
1.56028E-6	-82.906452
1.560325E-6	-84.226231
1.56037E-6	-83.197552
1.560415E-6	-75.234582
1.56046E-6	-70.702236
1.560505E-6	-68.551146
1.56055E-6	-67.953375
1.560595E-6	-67.977842
1.56064E-6	-67.89414
1.560685E-6	-67.983298
1.56073E-6	-67.846268
1.560775E-6	-68.079904
1.56082E-6	-69.017025
1.560865E-6	-71.263307
1.56091E-6	-76.038007
1.560955E-6	-81.304749
1.561E-6	-83.127387
1.561045E-6	-84.618034
1.56109E-6	-82.740067
1.561135E-6	-80.162835
1.56118E-6	-72.476442
1.561225E-6	-55.821963
1.56127E-6	-47.128704
1.561315E-6	-42.986911
1.56136E-6	-41.996954
1.561405E-6	-41.868862
1.56145E-6	-41.88157
1.561495E-6	-41.953155
1.56154E-6	-42.02871
1.561585E-6	-42.7417
1.56163E-6	-45.43027
1.561675E-6	-51.373916
1.56172E-6	-62.304012
1.561765E-6	-69.034376
1.56181E-6	-76.712128
1.561855E-6	-80.126466
1.5619E-6	-82.829956
1.561945E-6	-84.098272
1.56199E-6	-82.722148
1.562035E-6	-76.893067
1.56208E-6	-71.923297
1.562125E-6	-69.593977
1.56217E-6	-68.804142
1.562215E-6	-68.784402
1.56226E-6	-68.642315
1.562305E-6	-68.732194
1.56235E-6	-68.768019
1.562395E-6	-68.904215
1.56244E-6	-69.54677
1.562485E-6	-71.568919
1.56253E-6	-75.694412
1.562575E-6	-79.698052
1.56262E-6	-83.296614
1.562665E-6	-84.78339
1.56271E-6	-82.182446
1.562755E-6	-80.896958
1.5628E-6	-74.070464
1.562845E-6	-59.400581
1.56289E-6	-48.250684
1.562935E-6	-43.342314
1.56298E-6	-42.004527
1.563025E-6	-41.78421
1.56307E-6	-41.823024
1.563115E-6	-41.897675
1.56316E-6	-42.000395
1.563205E-6	-42.501864
1.56325E-6	-44.728859
1.563295E-6	-49.726504
1.56334E-6	-60.015227
1.563385E-6	-68.150248
1.56343E-6	-74.989407
