Wavelength (nm)	Power (dBm)
1.525E-6	-49.434763
1.525045E-6	-49.329291
1.52509E-6	-49.430951
1.525135E-6	-49.821323
1.52518E-6	-50.204061
1.525225E-6	-50.303512
1.52527E-6	-50.253041
1.525315E-6	-50.182267
1.52536E-6	-50.097056
1.525405E-6	-50.004345
1.52545E-6	-49.792245
1.525495E-6	-49.154237
1.52554E-6	-48.320922
1.525585E-6	-47.75208
1.52563E-6	-47.4958
1.525675E-6	-47.33298
1.52572E-6	-47.153437
1.525765E-6	-46.985359
1.52581E-6	-46.85922
1.525855E-6	-46.996219
1.5259E-6	-47.644716
1.525945E-6	-48.50473
1.52599E-6	-48.9279
1.526035E-6	-48.979095
1.52608E-6	-48.924509
1.526125E-6	-48.860566
1.52617E-6	-48.78112
1.526215E-6	-48.59492
1.52626E-6	-47.77804
1.526305E-6	-46.556077
1.52635E-6	-45.590909
1.526395E-6	-45.285616
1.52644E-6	-45.107448
1.526485E-6	-44.937656
1.52653E-6	-44.867824
1.526575E-6	-44.774254
1.52662E-6	-44.918745
1.526665E-6	-45.707323
1.52671E-6	-46.994045
1.526755E-6	-47.8199
1.5268E-6	-47.961515
1.526845E-6	-47.94525
1.52689E-6	-47.888795
1.526935E-6	-47.835702
1.52698E-6	-47.664962
1.527025E-6	-46.619421
1.52707E-6	-44.953932
1.527115E-6	-43.795516
1.52716E-6	-43.33482
1.527205E-6	-43.144374
1.52725E-6	-43.060094
1.527295E-6	-42.993828
1.52734E-6	-42.881928
1.527385E-6	-42.979143
1.52743E-6	-43.768541
1.527475E-6	-45.391022
1.52752E-6	-46.827727
1.527565E-6	-47.265357
1.52761E-6	-47.316561
1.527655E-6	-47.272304
1.5277E-6	-47.251497
1.527745E-6	-47.144427
1.52779E-6	-46.281935
1.527835E-6	-44.267802
1.52788E-6	-42.657604
1.527925E-6	-41.979107
1.52797E-6	-41.817741
1.528015E-6	-41.771784
1.52806E-6	-41.690907
1.528105E-6	-41.639292
1.52815E-6	-41.698606
1.528195E-6	-42.3114
1.52824E-6	-43.905123
1.528285E-6	-45.939711
1.52833E-6	-46.817279
1.528375E-6	-46.968039
1.52842E-6	-46.922901
1.528465E-6	-46.786087
1.52851E-6	-46.101254
1.528555E-6	-41.084068
1.5286E-6	-28.92112
1.528645E-6	-21.719204
1.52869E-6	-18.820662
1.528735E-6	-17.929045
1.52878E-6	-17.710866
1.528825E-6	-17.572102
1.52887E-6	-17.478754
1.528915E-6	-17.647241
1.52896E-6	-19.240882
1.529005E-6	-23.646168
1.52905E-6	-32.66161
1.529095E-6	-41.428485
1.52914E-6	-45.533075
1.529185E-6	-46.5267
1.52923E-6	-46.685727
1.529275E-6	-46.42637
1.52932E-6	-44.680104
1.529365E-6	-32.803373
1.52941E-6	-23.568435
1.529455E-6	-19.788107
1.5295E-6	-18.323873
1.529545E-6	-18.007935
1.52959E-6	-17.93714
1.529635E-6	-17.838341
1.52968E-6	-17.870138
1.529725E-6	-18.837244
1.52977E-6	-22.021787
1.529815E-6	-29.310724
1.52986E-6	-39.689957
1.529905E-6	-44.784697
1.52995E-6	-46.36388
1.529995E-6	-46.66956
1.53004E-6	-46.577748
1.530085E-6	-45.702477
1.53013E-6	-38.294449
1.530175E-6	-25.820304
1.53022E-6	-20.86504
1.530265E-6	-18.817353
1.53031E-6	-18.303256
1.530355E-6	-18.138916
1.5304E-6	-18.088285
1.530445E-6	-18.079904
1.53049E-6	-18.501653
1.530535E-6	-20.661585
1.53058E-6	-26.015392
1.530625E-6	-35.939711
1.53067E-6	-43.359224
1.530715E-6	-46.043242
1.53076E-6	-46.631402
1.530805E-6	-46.659486
1.53085E-6	-46.190655
1.530895E-6	-42.382225
1.53094E-6	-29.115095
1.530985E-6	-22.269453
1.53103E-6	-19.461536
1.531075E-6	-18.635966
1.53112E-6	-18.449678
1.531165E-6	-18.41336
1.53121E-6	-18.380334
1.531255E-6	-18.579235
1.5313E-6	-20.039263
1.531345E-6	-24.080454
1.53139E-6	-32.292216
1.531435E-6	-41.594548
1.53148E-6	-45.578339
1.531525E-6	-46.561977
1.53157E-6	-46.7305
1.531615E-6	-46.522798
1.53166E-6	-44.988038
1.531705E-6	-33.476569
1.53175E-6	-24.12289
1.531795E-6	-20.191334
1.53184E-6	-18.754958
1.531885E-6	-18.4649
1.53193E-6	-18.392314
1.531975E-6	-18.377344
1.53202E-6	-18.452718
1.532065E-6	-19.211808
1.53211E-6	-21.941595
1.532155E-6	-28.320922
1.5322E-6	-38.585502
1.532245E-6	-44.545692
1.53229E-6	-46.382722
1.532335E-6	-46.775739
1.53238E-6	-46.728455
1.532425E-6	-46.004993
1.53247E-6	-39.538952
1.532515E-6	-26.561977
1.53256E-6	-21.202735
1.532605E-6	-19.041335
1.53265E-6	-18.541823
1.532695E-6	-18.437538
1.53274E-6	-18.452718
1.532785E-6	-18.507809
1.53283E-6	-18.931295
1.532875E-6	-20.86557
1.53292E-6	-25.668705
1.532965E-6	-35.103227
1.53301E-6	-43.07682
1.533055E-6	-46.172627
1.5331E-6	-46.873996
1.533145E-6	-46.965879
1.53319E-6	-46.661499
1.533235E-6	-44.371126
1.53328E-6	-31.747037
1.533325E-6	-23.329208
1.53337E-6	-19.817157
1.533415E-6	-18.687022
1.53346E-6	-18.507809
1.533505E-6	-18.523237
1.53355E-6	-18.610661
1.533595E-6	-18.78112
1.53364E-6	-19.825493
1.533685E-6	-23.147959
1.53373E-6	-30.332952
1.533775E-6	-40.200421
1.53382E-6	-45.50059
1.533865E-6	-46.914356
1.53391E-6	-47.194216
1.533955E-6	-47.07301
1.534E-6	-46.06074
1.534045E-6	-38.218867
1.53409E-6	-25.715412
1.534135E-6	-20.791986
1.53418E-6	-18.880657
1.534225E-6	-18.480176
1.53427E-6	-18.461851
1.534315E-6	-18.560489
1.53436E-6	-18.687022
1.534405E-6	-19.211808
1.53445E-6	-21.446626
1.534495E-6	-26.605486
1.53454E-6	-36.35449
1.534585E-6	-43.970723
1.53463E-6	-46.751005
1.534675E-6	-47.382615
1.53472E-6	-47.435228
1.534765E-6	-46.970201
1.53481E-6	-43.699791
1.534855E-6	-30.023515
1.5349E-6	-22.34257
1.534945E-6	-19.193735
1.53499E-6	-18.309136
1.535035E-6	-18.236193
1.53508E-6	-18.320922
1.535125E-6	-18.431481
1.53517E-6	-18.693447
1.535215E-6	-20.036635
1.53526E-6	-23.828948
1.535305E-6	-31.655793
1.53535E-6	-41.311793
1.535395E-6	-46.216021
1.53544E-6	-47.503126
1.535485E-6	-47.736579
1.53553E-6	-47.539941
1.535575E-6	-46.236056
1.53562E-6	-36.513058
1.535665E-6	-25.184141
1.53571E-6	-20.289098
1.535755E-6	-18.422411
1.5358E-6	-18.079904
1.535845E-6	-18.107905
1.53589E-6	-18.187282
1.535935E-6	-18.300318
1.53598E-6	-18.91435
1.536025E-6	-21.28077
1.53607E-6	-27.101882
1.536115E-6	-37.363639
1.53616E-6	-44.58296
1.536205E-6	-47.283907
1.53625E-6	-47.891466
1.536295E-6	-47.93444
1.53634E-6	-47.330631
1.536385E-6	-43.571399
1.53643E-6	-29.605859
1.536475E-6	-22.046762
1.53652E-6	-18.961963
1.536565E-6	-18.08549
1.53661E-6	-18.010681
1.536655E-6	-18.052082
1.5367E-6	-18.093882
1.536745E-6	-18.303256
1.53679E-6	-19.689957
1.536835E-6	-23.439018
1.53688E-6	-31.600822
1.536925E-6	-41.384656
1.53697E-6	-46.447401
1.537015E-6	-47.848914
1.53706E-6	-48.124793
1.537105E-6	-47.910215
1.53715E-6	-46.513058
1.537195E-6	-36.418747
1.53724E-6	-24.869156
1.537285E-6	-20.167346
1.53733E-6	-18.253588
1.537375E-6	-17.883456
1.53742E-6	-17.872798
1.537465E-6	-17.89414
1.53751E-6	-17.939841
1.537555E-6	-18.461851
1.5376E-6	-20.839674
1.537645E-6	-26.605486
1.53769E-6	-36.771607
1.537735E-6	-44.293403
1.53778E-6	-47.366007
1.537825E-6	-48.113527
1.53787E-6	-48.167302
1.537915E-6	-47.584535
1.53796E-6	-44.257372
1.538005E-6	-30.348454
1.53805E-6	-22.148838
1.538095E-6	-18.860566
1.53814E-6	-17.796304
1.538185E-6	-17.632109
1.53823E-6	-17.609509
1.538275E-6	-17.597004
1.53832E-6	-17.736579
1.538365E-6	-18.9279
1.53841E-6	-22.569608
1.538455E-6	-30.324052
1.5385E-6	-40.393865
1.538545E-6	-46.029295
1.53859E-6	-47.81202
1.538635E-6	-48.178708
1.53868E-6	-48.007935
1.538725E-6	-46.817279
1.53877E-6	-38.416375
1.538815E-6	-25.586191
1.53886E-6	-20.374886
1.538905E-6	-18.353498
1.53895E-6	-17.848914
1.538995E-6	-17.749493
1.53904E-6	-17.731424
1.539085E-6	-17.721133
1.53913E-6	-18.130437
1.539175E-6	-20.215456
1.53922E-6	-25.545515
1.539265E-6	-35.480601
1.53931E-6	-43.607128
1.539355E-6	-47.124222
1.5394E-6	-47.991495
1.539445E-6	-48.091083
1.53949E-6	-47.577071
1.539535E-6	-44.710833
1.53958E-6	-31.020432
1.539625E-6	-22.564118
1.53967E-6	-19.093893
1.539715E-6	-17.942545
1.53976E-6	-17.715996
1.539805E-6	-17.654827
1.53985E-6	-17.637147
1.539895E-6	-17.692957
1.53994E-6	-18.677403
1.539985E-6	-21.947711
1.54003E-6	-29.702105
1.540075E-6	-39.434763
1.54012E-6	-45.573635
1.540165E-6	-47.530093
1.54021E-6	-47.9588
1.540255E-6	-47.867479
1.5403E-6	-46.895191
1.540345E-6	-40.043209
1.54039E-6	-26.561977
1.540435E-6	-20.848641
1.54048E-6	-18.4649
1.540525E-6	-17.806775
1.54057E-6	-17.672579
1.540615E-6	-17.624563
1.54066E-6	-17.594508
1.540705E-6	-17.89414
1.54075E-6	-19.710223
1.540795E-6	-24.426131
1.54084E-6	-33.737623
1.540885E-6	-42.702684
1.54093E-6	-46.589614
1.540975E-6	-47.692957
1.54102E-6	-47.835702
1.541065E-6	-47.530093
1.54111E-6	-45.603516
1.541155E-6	-33.501785
1.5412E-6	-23.823707
1.541245E-6	-19.722428
1.54129E-6	-18.181564
1.541335E-6	-17.817271
1.54138E-6	-17.736579
1.541425E-6	-17.695511
1.54147E-6	-17.726276
1.541515E-6	-18.483238
1.54156E-6	-21.276689
1.541605E-6	-27.767637
1.54165E-6	-38.241984
1.541695E-6	-44.714689
1.54174E-6	-47.146678
1.541785E-6	-47.654827
1.54183E-6	-47.624563
1.541875E-6	-46.92718
1.54192E-6	-42.452695
1.541965E-6	-28.443604
1.54201E-6	-21.470932
1.542055E-6	-18.683813
1.5421E-6	-17.878124
1.542145E-6	-17.721133
1.54219E-6	-17.670039
1.542235E-6	-17.634627
1.54228E-6	-17.772835
1.542325E-6	-19.090369
1.54237E-6	-22.921744
1.542415E-6	-31.24071
1.54246E-6	-40.759793
1.542505E-6	-45.84359
1.54255E-6	-47.274622
1.542595E-6	-47.539941
1.54264E-6	-47.382615
1.542685E-6	-46.169031
1.54273E-6	-36.937895
1.542775E-6	-25.262212
1.54282E-6	-20.391013
1.542865E-6	-18.428456
1.54291E-6	-17.972393
1.542955E-6	-17.90217
1.543E-6	-17.859513
1.543045E-6	-17.825161
1.54309E-6	-18.181564
1.543135E-6	-20.155177
1.54318E-6	-25.205687
1.543225E-6	-35.252012
1.54327E-6	-43.209357
1.543315E-6	-46.522798
1.54336E-6	-47.328283
1.543405E-6	-47.428016
1.54345E-6	-47.042131
1.543495E-6	-44.687766
1.54354E-6	-31.850203
1.543585E-6	-23.084765
1.54363E-6	-19.442395
1.543675E-6	-18.173001
1.54372E-6	-17.93714
1.543765E-6	-17.862167
1.54381E-6	-17.825161
1.543855E-6	-17.883456
1.5439E-6	-18.648673
1.543945E-6	-21.534155
1.54399E-6	-28.201611
1.544035E-6	-38.745187
1.54408E-6	-44.658469
1.544125E-6	-46.882461
1.54417E-6	-47.342391
1.544215E-6	-47.307206
1.54426E-6	-46.623411
1.544305E-6	-41.859523
1.54435E-6	-28.141746
1.544395E-6	-21.47398
1.54444E-6	-18.794261
1.544485E-6	-18.074325
1.54453E-6	-17.947956
1.544575E-6	-17.920965
1.54462E-6	-17.880789
1.544665E-6	-18.013429
1.54471E-6	-19.303319
1.544755E-6	-23.186683
1.5448E-6	-31.414628
1.544845E-6	-41.085741
1.54489E-6	-45.83859
1.544935E-6	-47.07301
1.54498E-6	-47.325936
1.545025E-6	-47.153437
1.54507E-6	-45.965363
1.545115E-6	-36.263525
1.54516E-6	-25.027938
1.545205E-6	-20.356932
1.54525E-6	-18.526329
1.545295E-6	-18.113527
1.54534E-6	-18.054857
1.545385E-6	-18.024438
1.54543E-6	-18.035475
1.545475E-6	-18.437538
1.54552E-6	-20.457575
1.545565E-6	-25.523769
1.54561E-6	-35.139948
1.545655E-6	-43.176744
1.5457E-6	-46.409238
1.545745E-6	-47.196493
1.54579E-6	-47.302536
1.545835E-6	-46.976691
1.54588E-6	-45.015516
1.545925E-6	-32.53833
1.54597E-6	-23.297541
1.546015E-6	-19.461536
1.54606E-6	-18.236193
1.546105E-6	-17.991495
1.54615E-6	-17.942545
1.546195E-6	-17.915586
1.54624E-6	-17.953375
1.546285E-6	-18.639139
1.54633E-6	-21.246493
1.546375E-6	-27.574586
1.54642E-6	-37.999707
1.546465E-6	-44.393761
1.54651E-6	-46.716204
1.546555E-6	-47.253804
1.5466E-6	-47.265357
1.546645E-6	-46.714166
1.54669E-6	-42.684112
1.546735E-6	-29.186527
1.54678E-6	-22.017638
1.546825E-6	-19.129288
1.54687E-6	-18.265224
1.546915E-6	-18.099486
1.54696E-6	-18.057633
1.547005E-6	-18.052082
1.54705E-6	-18.198741
1.547095E-6	-19.310724
1.54714E-6	-22.701875
1.547185E-6	-29.982663
1.54723E-6	-39.93534
1.547275E-6	-45.410601
1.54732E-6	-46.96372
1.547365E-6	-47.281584
1.54741E-6	-47.191941
1.547455E-6	-46.281935
1.5475E-6	-39.714287
1.547545E-6	-26.382722
1.54759E-6	-20.848113
1.547635E-6	-18.563608
1.54768E-6	-18.005191
1.547725E-6	-17.89414
1.54777E-6	-17.89414
1.547815E-6	-17.90217
1.54786E-6	-18.127614
1.547905E-6	-19.649707
1.54795E-6	-23.863696
1.547995E-6	-32.794273
1.54804E-6	-41.711468
1.548085E-6	-45.949953
1.54813E-6	-47.108572
1.548175E-6	-47.290884
1.54822E-6	-47.086311
1.548265E-6	-45.687971
1.54831E-6	-35.285616
1.548355E-6	-24.685211
1.5484E-6	-20.190881
1.548445E-6	-18.458805
1.54849E-6	-18.057633
1.548535E-6	-17.980569
1.54858E-6	-17.986029
1.548625E-6	-18.002448
1.54867E-6	-18.410347
1.548715E-6	-20.521253
1.54876E-6	-25.788899
1.548805E-6	-35.617742
1.54885E-6	-43.295686
1.548895E-6	-46.472388
1.54894E-6	-47.178312
1.548985E-6	-47.256112
1.54903E-6	-46.903698
1.549075E-6	-44.787311
1.54912E-6	-32.709973
1.549165E-6	-23.426573
1.54921E-6	-19.558524
1.549255E-6	-18.181564
1.5493E-6	-17.93444
1.549345E-6	-17.896815
1.54939E-6	-17.90485
1.549435E-6	-17.94525
1.54948E-6	-18.604357
1.549525E-6	-21.193007
1.54957E-6	-27.162466
1.549615E-6	-37.525177
1.54966E-6	-44.203307
1.549705E-6	-46.631402
1.54975E-6	-47.18285
1.549795E-6	-47.198771
1.54984E-6	-46.693833
1.549885E-6	-43.46691
1.54993E-6	-30.085524
1.549975E-6	-22.312879
1.55002E-6	-19.115095
1.550065E-6	-18.167302
1.55011E-6	-17.988761
1.550155E-6	-17.972393
1.5502E-6	-17.953375
1.550245E-6	-18.007935
1.55029E-6	-18.777841
1.550335E-6	-21.672995
1.55038E-6	-28.50473
1.550425E-6	-39.125735
1.55047E-6	-44.797786
1.550515E-6	-46.769543
1.55056E-6	-47.16925
1.550605E-6	-47.130946
1.55065E-6	-46.414941
1.550695E-6	-41.529211
1.55074E-6	-27.980569
1.550785E-6	-21.536629
1.55083E-6	-18.840568
1.550875E-6	-18.10229
1.55092E-6	-17.942545
1.550965E-6	-17.896815
1.55101E-6	-17.886124
1.551055E-6	-18.002448
1.5511E-6	-19.150664
1.551145E-6	-22.700257
1.55119E-6	-30.339522
1.551235E-6	-40.217738
1.55128E-6	-45.337257
1.551325E-6	-46.836102
1.55137E-6	-47.13319
1.551415E-6	-47.042131
1.55146E-6	-46.221476
1.551505E-6	-39.710223
1.55155E-6	-26.697892
1.551595E-6	-20.967472
1.55164E-6	-18.693447
1.551685E-6	-18.091083
1.55173E-6	-17.994231
1.551775E-6	-17.956087
1.55182E-6	-17.923656
1.551865E-6	-18.113527
1.55191E-6	-19.554602
1.551955E-6	-23.599163
1.552E-6	-31.891628
1.552045E-6	-41.086856
1.55209E-6	-45.718652
1.552135E-6	-46.878226
1.55218E-6	-47.090754
1.552225E-6	-46.922901
1.55227E-6	-45.734887
1.552315E-6	-36.399749
1.55236E-6	-25.176982
1.552405E-6	-20.34234
1.55245E-6	-18.45576
1.552495E-6	-18.032713
1.55254E-6	-17.964232
1.552585E-6	-17.915586
1.55263E-6	-17.896815
1.552675E-6	-18.215987
1.55272E-6	-20.029196
1.552765E-6	-24.818811
1.55281E-6	-33.902989
1.552855E-6	-42.429838
1.5529E-6	-46.029295
1.552945E-6	-46.91009
1.55299E-6	-47.033348
1.553035E-6	-46.802695
1.55308E-6	-45.313573
1.553125E-6	-34.561802
1.55317E-6	-24.089354
1.553215E-6	-19.788107
1.55326E-6	-18.244882
1.553305E-6	-17.896815
1.55335E-6	-17.833064
1.553395E-6	-17.791078
1.55344E-6	-17.798919
1.553485E-6	-18.239087
1.55353E-6	-20.319843
1.553575E-6	-25.32836
1.55362E-6	-35.066814
1.553665E-6	-42.800062
1.55371E-6	-46.081831
1.553755E-6	-46.880343
1.5538E-6	-46.987529
1.553845E-6	-46.68168
1.55389E-6	-44.806972
1.553935E-6	-32.876871
1.55398E-6	-23.472703
1.554025E-6	-19.657727
1.55407E-6	-18.306195
1.554115E-6	-17.999707
1.55416E-6	-17.929045
1.554205E-6	-17.880789
1.55425E-6	-17.89414
1.554295E-6	-18.365404
1.55434E-6	-20.588863
1.554385E-6	-26.163641
1.55443E-6	-36.152883
1.554475E-6	-43.444774
1.55452E-6	-46.212388
1.554565E-6	-46.873996
1.55461E-6	-46.920763
1.554655E-6	-46.5267
1.5547E-6	-44.113922
1.554745E-6	-31.23032
1.55479E-6	-22.814153
1.554835E-6	-19.35542
1.55488E-6	-18.16161
1.554925E-6	-17.896815
1.55497E-6	-17.833064
1.555015E-6	-17.81202
1.55506E-6	-17.846268
1.555105E-6	-18.395315
1.55515E-6	-20.836513
1.555195E-6	-26.827727
1.55524E-6	-37.108572
1.555285E-6	-43.77061
1.55533E-6	-46.243364
1.555375E-6	-46.825635
1.55542E-6	-46.850799
1.555465E-6	-46.382722
1.55551E-6	-43.390397
1.555555E-6	-30.089069
1.5556E-6	-22.323989
1.555645E-6	-19.164974
1.55569E-6	-18.153086
1.555735E-6	-17.966951
1.55578E-6	-17.94525
1.555825E-6	-17.92635
1.55587E-6	-17.977842
1.555915E-6	-18.576105
1.55596E-6	-21.12214
1.556005E-6	-27.408842
1.55605E-6	-37.825161
1.556095E-6	-44.059391
1.55614E-6	-46.287474
1.556185E-6	-46.811023
1.55623E-6	-46.817279
1.556275E-6	-46.367642
1.55632E-6	-43.175841
1.556365E-6	-29.775716
1.55641E-6	-22.270185
1.556455E-6	-19.100949
1.5565E-6	-18.08549
1.556545E-6	-17.907532
1.55659E-6	-17.862167
1.556635E-6	-17.846268
1.55668E-6	-17.89414
1.556725E-6	-18.642315
1.55677E-6	-21.4752
1.556815E-6	-28.005191
1.55686E-6	-38.300318
1.556905E-6	-44.299243
1.55695E-6	-46.390281
1.556995E-6	-46.800616
1.55704E-6	-46.800616
1.557085E-6	-46.294869
1.55713E-6	-42.953348
1.557175E-6	-29.677843
1.55722E-6	-22.019712
1.557265E-6	-18.934691
1.55731E-6	-17.953375
1.557355E-6	-17.780644
1.5574E-6	-17.746907
1.557445E-6	-17.759852
1.55749E-6	-17.830428
1.557535E-6	-18.626459
1.55758E-6	-21.56269
1.557625E-6	-28.195874
1.55767E-6	-38.677403
1.557715E-6	-44.379452
1.55776E-6	-46.394066
1.557805E-6	-46.836102
1.55785E-6	-46.827727
1.557895E-6	-46.305986
1.55794E-6	-42.676867
1.557985E-6	-29.400581
1.55803E-6	-22.079587
1.558075E-6	-18.904215
1.55812E-6	-17.89414
1.558165E-6	-17.703182
1.55821E-6	-17.68021
1.558255E-6	-17.708303
1.5583E-6	-17.791078
1.558345E-6	-18.623295
1.55839E-6	-21.624116
1.558435E-6	-28.45576
1.55848E-6	-38.897471
1.558525E-6	-44.503838
1.55857E-6	-46.478175
1.558615E-6	-46.903698
1.55866E-6	-46.903698
1.558705E-6	-46.3865
1.55875E-6	-42.619333
1.558795E-6	-29.329291
1.55884E-6	-21.952474
1.558885E-6	-18.863908
1.55893E-6	-17.93444
1.558975E-6	-17.775437
1.55902E-6	-17.765041
1.559065E-6	-17.79369
1.55911E-6	-17.878124
1.559155E-6	-18.687022
1.5592E-6	-21.521807
1.559245E-6	-28.317973
1.55929E-6	-38.661419
1.559335E-6	-44.539511
1.55938E-6	-46.579723
1.559425E-6	-47.020208
1.55947E-6	-47.028963
1.559515E-6	-46.509168
1.55956E-6	-42.701066
1.559605E-6	-29.115095
1.55965E-6	-21.872203
1.559695E-6	-18.931295
1.55974E-6	-18.052082
1.559785E-6	-17.915586
1.55983E-6	-17.94525
1.559875E-6	-17.986029
1.55992E-6	-18.079904
1.559965E-6	-18.9279
1.56001E-6	-21.85819
1.560055E-6	-28.585502
1.5601E-6	-38.975663
1.560145E-6	-44.735315
1.56019E-6	-46.746896
1.560235E-6	-47.196493
1.56028E-6	-47.207895
1.560325E-6	-46.714166
1.56037E-6	-43.402739
1.560415E-6	-29.854795
1.56046E-6	-22.143855
1.560505E-6	-18.904215
1.56055E-6	-17.92635
1.560595E-6	-17.772835
1.56064E-6	-17.791078
1.560685E-6	-17.851562
1.56073E-6	-17.980569
1.560775E-6	-18.804142
1.56082E-6	-21.754837
1.560865E-6	-28.572978
1.56091E-6	-38.985966
1.560955E-6	-44.791236
1.561E-6	-46.899443
1.561045E-6	-47.404061
1.56109E-6	-47.425614
1.561135E-6	-46.905828
1.56118E-6	-43.619103
1.561225E-6	-30.074465
1.56127E-6	-22.054422
1.561315E-6	-18.850556
1.56136E-6	-17.870138
1.561405E-6	-17.728849
1.56145E-6	-17.754669
1.561495E-6	-17.822529
1.56154E-6	-17.931741
1.561585E-6	-18.661419
1.56163E-6	-21.367961
1.561675E-6	-27.878124
1.56172E-6	-38.17015
1.561765E-6	-44.528409
1.56181E-6	-47.022395
1.561855E-6	-47.619539
1.5619E-6	-47.68021
1.561945E-6	-47.256112
1.56199E-6	-44.754741
1.562035E-6	-31.635493
1.56208E-6	-22.76134
1.562125E-6	-19.115095
1.56217E-6	-17.896815
1.562215E-6	-17.715996
1.56226E-6	-17.74174
1.562305E-6	-17.81202
1.56235E-6	-17.920965
1.562395E-6	-18.458805
1.56244E-6	-20.752556
1.562485E-6	-26.38461
1.56253E-6	-36.236056
1.562575E-6	-43.805936
1.56262E-6	-47.053134
1.562665E-6	-47.867479
1.56271E-6	-47.964232
1.562755E-6	-47.607005
1.5628E-6	-45.370034
1.562845E-6	-32.89375
1.56289E-6	-23.209357
1.562935E-6	-19.208188
1.56298E-6	-17.804155
1.563025E-6	-17.567139
1.56307E-6	-17.592012
1.563115E-6	-17.675121
1.56316E-6	-17.79369
1.563205E-6	-18.268137
1.56325E-6	-20.489541
1.563295E-6	-25.792194
1.56334E-6	-35.905741
1.563385E-6	-43.693688
1.56343E-6	-47.207895
1.563475E-6	-48.141746
