Wavelength (nm)	Power (dBm)
1.525E-6	-46.699923
1.525045E-6	-46.595559
1.52509E-6	-46.499459
1.525135E-6	-46.414941
1.52518E-6	-46.320853
1.525225E-6	-46.217839
1.52527E-6	-46.140364
1.525315E-6	-46.036263
1.52536E-6	-45.924392
1.525405E-6	-45.831931
1.52545E-6	-45.723516
1.525495E-6	-45.625666
1.52554E-6	-45.495969
1.525585E-6	-45.385015
1.52563E-6	-45.28855
1.525675E-6	-45.207127
1.52572E-6	-45.080783
1.525765E-6	-44.996263
1.52581E-6	-44.93901
1.525855E-6	-44.867824
1.5259E-6	-44.839938
1.525945E-6	-44.793855
1.52599E-6	-44.70698
1.526035E-6	-44.652126
1.52608E-6	-44.590452
1.526125E-6	-44.517335
1.52617E-6	-44.455108
1.526215E-6	-44.391373
1.52626E-6	-44.263163
1.526305E-6	-44.127382
1.52635E-6	-44.018664
1.526395E-6	-43.952341
1.52644E-6	-43.881705
1.526485E-6	-43.802807
1.52653E-6	-43.760275
1.526575E-6	-43.687592
1.52662E-6	-43.653212
1.526665E-6	-43.650192
1.52671E-6	-43.650192
1.526755E-6	-43.652205
1.5268E-6	-43.604139
1.526845E-6	-43.556599
1.52689E-6	-43.494011
1.526935E-6	-43.439977
1.52698E-6	-43.37809
1.527025E-6	-43.292904
1.52707E-6	-43.20663
1.527115E-6	-43.066248
1.52716E-6	-42.987775
1.527205E-6	-42.923447
1.52725E-6	-42.876029
1.527295E-6	-42.842473
1.52734E-6	-42.818306
1.527385E-6	-42.786016
1.52743E-6	-42.819968
1.527475E-6	-42.889524
1.52752E-6	-42.931116
1.527565E-6	-42.910695
1.52761E-6	-42.875187
1.527655E-6	-42.851675
1.5277E-6	-42.819137
1.527745E-6	-42.785191
1.52779E-6	-42.735173
1.527835E-6	-42.624098
1.52788E-6	-42.481053
1.527925E-6	-42.376216
1.52797E-6	-42.335128
1.528015E-6	-42.310661
1.52806E-6	-42.313619
1.528105E-6	-42.31732
1.52815E-6	-42.269453
1.528195E-6	-42.303273
1.52824E-6	-42.412395
1.528285E-6	-42.498003
1.52833E-6	-42.536772
1.528375E-6	-42.528213
1.52842E-6	-42.50341
1.528465E-6	-42.471836
1.52851E-6	-42.487979
1.528555E-6	-42.442013
1.5286E-6	-42.355997
1.528645E-6	-42.173841
1.52869E-6	-42.077484
1.528735E-6	-42.061398
1.52878E-6	-42.053029
1.528825E-6	-42.03495
1.52887E-6	-42.032176
1.528915E-6	-41.994891
1.52896E-6	-42.062794
1.529005E-6	-42.158822
1.52905E-6	-42.304012
1.529095E-6	-42.368716
1.52914E-6	-42.36123
1.529185E-6	-42.319542
1.52923E-6	-42.341825
1.529275E-6	-42.338847
1.52932E-6	-42.323989
1.529365E-6	-42.276783
1.52941E-6	-42.126812
1.529455E-6	-41.990081
1.5295E-6	-41.952474
1.529545E-6	-41.940915
1.52959E-6	-41.948391
1.529635E-6	-41.933453
1.52968E-6	-41.915864
1.529725E-6	-41.957924
1.52977E-6	-42.083795
1.529815E-6	-42.207644
1.52986E-6	-42.278984
1.529905E-6	-42.309182
1.52995E-6	-42.307704
1.529995E-6	-42.29148
1.53004E-6	-42.300322
1.530085E-6	-42.319542
1.53013E-6	-42.288537
1.530175E-6	-42.14101
1.53022E-6	-42.012113
1.530265E-6	-41.952474
1.53031E-6	-41.940236
1.530355E-6	-41.934131
1.5304E-6	-41.928033
1.530445E-6	-41.930742
1.53049E-6	-41.957242
1.530535E-6	-42.051635
1.53058E-6	-42.182446
1.530625E-6	-42.302535
1.53067E-6	-42.35525
1.530715E-6	-42.354503
1.53076E-6	-42.35525
1.530805E-6	-42.377717
1.53085E-6	-42.366469
1.530895E-6	-42.378468
1.53094E-6	-42.259212
1.530985E-6	-42.129648
1.53103E-6	-42.040505
1.531075E-6	-42.03981
1.53112E-6	-42.033563
1.531165E-6	-42.041895
1.53121E-6	-42.040505
1.531255E-6	-42.041895
1.5313E-6	-42.125395
1.531345E-6	-42.252641
1.53139E-6	-42.395775
1.531435E-6	-42.471836
1.53148E-6	-42.498775
1.531525E-6	-42.504183
1.53157E-6	-42.522775
1.531615E-6	-42.517344
1.53166E-6	-42.544568
1.531705E-6	-42.467234
1.53175E-6	-42.326957
1.531795E-6	-42.241712
1.53184E-6	-42.191788
1.531885E-6	-42.20981
1.53193E-6	-42.196107
1.531975E-6	-42.227907
1.53202E-6	-42.241712
1.532065E-6	-42.28339
1.53211E-6	-42.4344
1.532155E-6	-42.57825
1.5322E-6	-42.676062
1.532245E-6	-42.705922
1.53229E-6	-42.728656
1.532335E-6	-42.767907
1.53238E-6	-42.795926
1.532425E-6	-42.798407
1.53247E-6	-42.770372
1.532515E-6	-42.697832
1.53256E-6	-42.540668
1.532605E-6	-42.49029
1.53265E-6	-42.507276
1.532695E-6	-42.513469
1.53274E-6	-42.520447
1.532785E-6	-42.551596
1.53283E-6	-42.586908
1.532875E-6	-42.678476
1.53292E-6	-42.835793
1.532965E-6	-42.994693
1.53301E-6	-43.058337
1.533055E-6	-43.102473
1.5331E-6	-43.150649
1.533145E-6	-43.162327
1.53319E-6	-43.190303
1.533235E-6	-43.188493
1.53328E-6	-43.139002
1.533325E-6	-43.02422
1.53337E-6	-42.947351
1.533415E-6	-42.913242
1.53346E-6	-42.944784
1.533505E-6	-42.965367
1.53355E-6	-42.996425
1.533595E-6	-43.046059
1.53364E-6	-43.098039
1.533685E-6	-43.237638
1.53373E-6	-43.421795
1.533775E-6	-43.543813
1.53382E-6	-43.606131
1.533865E-6	-43.628106
1.53391E-6	-43.670368
1.533955E-6	-43.695721
1.534E-6	-43.686577
1.534045E-6	-43.686577
1.53409E-6	-43.598168
1.534135E-6	-43.524214
1.53418E-6	-43.462088
1.534225E-6	-43.477537
1.53427E-6	-43.517376
1.534315E-6	-43.542831
1.53436E-6	-43.593198
1.534405E-6	-43.621102
1.53445E-6	-43.7202
1.534495E-6	-43.879583
1.53454E-6	-44.072682
1.534585E-6	-44.136378
1.53463E-6	-44.17823
1.534675E-6	-44.237739
1.53472E-6	-44.245812
1.534765E-6	-44.278257
1.53481E-6	-44.30392
1.534855E-6	-44.265482
1.5349E-6	-44.144265
1.534945E-6	-44.047243
1.53499E-6	-44.052761
1.535035E-6	-44.082678
1.53508E-6	-44.116162
1.535125E-6	-44.15895
1.53517E-6	-44.19189
1.535215E-6	-44.282912
1.53526E-6	-44.42132
1.535305E-6	-44.584208
1.53535E-6	-44.704413
1.535395E-6	-44.784697
1.53544E-6	-44.792545
1.535485E-6	-44.824083
1.53553E-6	-44.849213
1.535575E-6	-44.88384
1.53562E-6	-44.86516
1.535665E-6	-44.774254
1.53571E-6	-44.641997
1.535755E-6	-44.618034
1.5358E-6	-44.638205
1.535845E-6	-44.676279
1.53589E-6	-44.700566
1.535935E-6	-44.748256
1.53598E-6	-44.776862
1.536025E-6	-44.877159
1.53607E-6	-45.069604
1.536115E-6	-45.21145
1.53616E-6	-45.300308
1.536205E-6	-45.307673
1.53625E-6	-45.320961
1.536295E-6	-45.347659
1.53634E-6	-45.391022
1.536385E-6	-45.391022
1.53643E-6	-45.313573
1.536475E-6	-45.175552
1.53652E-6	-45.089186
1.536565E-6	-45.072396
1.53661E-6	-45.104634
1.536655E-6	-45.134278
1.5367E-6	-45.158426
1.536745E-6	-45.176982
1.53679E-6	-45.237482
1.536835E-6	-45.380515
1.53688E-6	-45.556429
1.536925E-6	-45.676722
1.53697E-6	-45.692801
1.537015E-6	-45.723516
1.53706E-6	-45.736514
1.537105E-6	-45.772461
1.53715E-6	-45.772461
1.537195E-6	-45.718652
1.53724E-6	-45.581478
1.537285E-6	-45.448505
1.53733E-6	-45.416644
1.537375E-6	-45.440898
1.53742E-6	-45.428754
1.537465E-6	-45.44546
1.53751E-6	-45.440898
1.537555E-6	-45.465288
1.5376E-6	-45.568935
1.537645E-6	-45.743028
1.53769E-6	-45.900669
1.537735E-6	-45.941416
1.53778E-6	-45.941416
1.537825E-6	-45.975667
1.53787E-6	-45.991168
1.537915E-6	-46.001533
1.53796E-6	-45.980827
1.538005E-6	-45.867002
1.53805E-6	-45.683147
1.538095E-6	-45.600361
1.53814E-6	-45.556429
1.538185E-6	-45.587763
1.53823E-6	-45.581478
1.538275E-6	-45.556429
1.53832E-6	-45.573635
1.538365E-6	-45.625666
1.53841E-6	-45.765903
1.538455E-6	-45.944829
1.5385E-6	-46.029295
1.538545E-6	-46.057235
1.53859E-6	-46.062494
1.538635E-6	-46.062494
1.53868E-6	-46.06074
1.538725E-6	-46.071273
1.53877E-6	-46.001533
1.538815E-6	-45.845258
1.53886E-6	-45.675117
1.538905E-6	-45.608253
1.53895E-6	-45.597208
1.538995E-6	-45.590909
1.53904E-6	-45.575202
1.539085E-6	-45.573635
1.53913E-6	-45.564241
1.539175E-6	-45.696024
1.53922E-6	-45.841923
1.539265E-6	-45.977386
1.53931E-6	-46.031036
1.539355E-6	-46.050233
1.5394E-6	-46.044989
1.539445E-6	-46.044989
1.53949E-6	-46.031036
1.539535E-6	-45.996347
1.53958E-6	-45.867002
1.539625E-6	-45.707323
1.53967E-6	-45.587763
1.539715E-6	-45.542402
1.53976E-6	-45.503673
1.539805E-6	-45.503673
1.53985E-6	-45.506759
1.539895E-6	-45.50059
1.53994E-6	-45.545515
1.539985E-6	-45.660702
1.54003E-6	-45.823623
1.540075E-6	-45.919297
1.54012E-6	-45.958508
1.540165E-6	-45.956795
1.54021E-6	-45.941416
1.540255E-6	-45.936302
1.5403E-6	-45.915904
1.540345E-6	-45.86365
1.54039E-6	-45.686362
1.540435E-6	-45.52842
1.54048E-6	-45.422695
1.540525E-6	-45.395532
1.54057E-6	-45.380515
1.540615E-6	-45.36555
1.54066E-6	-45.362563
1.540705E-6	-45.382014
1.54075E-6	-45.442418
1.540795E-6	-45.587763
1.54084E-6	-45.751184
1.540885E-6	-45.81533
1.54093E-6	-45.828606
1.540975E-6	-45.818645
1.54102E-6	-45.805399
1.541065E-6	-45.777385
1.54111E-6	-45.765903
1.541155E-6	-45.679933
1.5412E-6	-45.49443
1.541245E-6	-45.331324
1.54129E-6	-45.252012
1.541335E-6	-45.241836
1.54138E-6	-45.234582
1.541425E-6	-45.241836
1.54147E-6	-45.218666
1.541515E-6	-45.249102
1.54156E-6	-45.347659
1.541605E-6	-45.539291
1.54165E-6	-45.652715
1.541695E-6	-45.700863
1.54174E-6	-45.686362
1.541785E-6	-45.683147
1.54183E-6	-45.660702
1.541875E-6	-45.649524
1.54192E-6	-45.616159
1.541965E-6	-45.486742
1.54201E-6	-45.292956
1.542055E-6	-45.147046
1.5421E-6	-45.118725
1.542145E-6	-45.104634
1.54219E-6	-45.097605
1.542235E-6	-45.127202
1.54228E-6	-45.104634
1.542325E-6	-45.137112
1.54237E-6	-45.304725
1.542415E-6	-45.491353
1.54246E-6	-45.564241
1.542505E-6	-45.595632
1.54255E-6	-45.583049
1.542595E-6	-45.572068
1.54264E-6	-45.578339
1.542685E-6	-45.572068
1.54273E-6	-45.503673
1.542775E-6	-45.31505
1.54282E-6	-45.120137
1.542865E-6	-45.040396
1.54291E-6	-45.026556
1.542955E-6	-45.05428
1.543E-6	-45.033471
1.543045E-6	-45.03901
1.54309E-6	-45.029321
1.543135E-6	-45.114493
1.54318E-6	-45.303252
1.543225E-6	-45.463759
1.54327E-6	-45.553308
1.543315E-6	-45.52842
1.54336E-6	-45.516029
1.543405E-6	-45.536182
1.54345E-6	-45.516029
1.543495E-6	-45.511392
1.54354E-6	-45.416644
1.543585E-6	-45.204247
1.54363E-6	-45.065419
1.543675E-6	-45.004504
1.54372E-6	-44.997635
1.543765E-6	-45.023794
1.54381E-6	-45.022413
1.543855E-6	-45.015516
1.5439E-6	-45.023794
1.543945E-6	-45.15131
1.54399E-6	-45.368539
1.544035E-6	-45.488278
1.54408E-6	-45.547072
1.544125E-6	-45.539291
1.54417E-6	-45.520671
1.544215E-6	-45.516029
1.54426E-6	-45.543958
1.544305E-6	-45.50059
1.54435E-6	-45.341712
1.544395E-6	-45.144205
1.54444E-6	-45.072396
1.544485E-6	-45.036239
1.54453E-6	-45.045944
1.544575E-6	-45.045944
1.54462E-6	-45.032087
1.544665E-6	-45.029321
1.54471E-6	-45.093393
1.544755E-6	-45.269512
1.5448E-6	-45.457651
1.544845E-6	-45.542402
1.54489E-6	-45.55799
1.544935E-6	-45.55799
1.54498E-6	-45.529971
1.545025E-6	-45.415132
1.54507E-6	-44.715976
1.545115E-6	-37.155693
1.54516E-6	-26.813107
1.545205E-6	-21.766562
1.54525E-6	-19.842212
1.545295E-6	-19.434763
1.54534E-6	-19.370422
1.545385E-6	-19.393022
1.54543E-6	-19.389247
1.545475E-6	-19.867413
1.54552E-6	-22.09363
1.545565E-6	-27.377863
1.54561E-6	-37.115272
1.545655E-6	-43.40369
1.5457E-6	-45.147046
1.545745E-6	-45.508303
1.54579E-6	-45.594057
1.545835E-6	-45.614577
1.54588E-6	-45.62408
1.545925E-6	-45.531523
1.54597E-6	-45.353614
1.546015E-6	-45.199931
1.54606E-6	-45.15131
1.546105E-6	-45.139948
1.54615E-6	-45.145625
1.546195E-6	-45.139948
1.54624E-6	-45.145625
1.546285E-6	-45.176982
1.54633E-6	-45.297366
1.546375E-6	-45.480601
1.54642E-6	-45.62091
1.546465E-6	-45.659104
1.54651E-6	-45.667103
1.546555E-6	-45.675117
1.5466E-6	-45.651119
1.546645E-6	-45.364056
1.54669E-6	-43.125602
1.546735E-6	-31.027029
1.54678E-6	-23.604139
1.546825E-6	-20.55172
1.54687E-6	-19.633711
1.546915E-6	-19.488475
1.54696E-6	-19.453869
1.547005E-6	-19.446217
1.54705E-6	-19.605859
1.547095E-6	-20.896958
1.54714E-6	-24.592952
1.547185E-6	-32.280453
1.54723E-6	-41.262145
1.547275E-6	-44.806972
1.54732E-6	-45.543958
1.547365E-6	-45.691191
1.54741E-6	-45.734887
1.547455E-6	-45.734887
1.5475E-6	-45.684754
1.547545E-6	-45.553308
1.54759E-6	-45.377518
1.547635E-6	-45.275361
1.54768E-6	-45.254924
1.547725E-6	-45.243288
1.54777E-6	-45.249102
1.547815E-6	-45.259295
1.54786E-6	-45.282683
1.547905E-6	-45.332806
1.54795E-6	-45.492891
1.547995E-6	-45.668705
1.54804E-6	-45.762628
1.548085E-6	-45.792194
1.54813E-6	-45.803746
1.548175E-6	-45.783961
1.54822E-6	-45.646335
1.548265E-6	-44.955291
1.54831E-6	-36.972363
1.548355E-6	-26.283781
1.5484E-6	-21.596429
1.548445E-6	-19.833845
1.54849E-6	-19.457701
1.548535E-6	-19.385475
1.54858E-6	-19.370422
1.548625E-6	-19.393022
1.54867E-6	-19.92679
1.548715E-6	-22.237348
1.54876E-6	-27.840982
1.548805E-6	-37.559704
1.54885E-6	-43.594192
1.548895E-6	-45.386516
1.54894E-6	-45.728386
1.548985E-6	-45.787252
1.54903E-6	-45.807053
1.549075E-6	-45.800443
1.54912E-6	-45.725139
1.549165E-6	-45.537736
1.54921E-6	-45.374523
1.549255E-6	-45.30178
1.5493E-6	-45.284149
1.549345E-6	-45.292956
1.54939E-6	-45.294425
1.549435E-6	-45.300308
1.54948E-6	-45.307673
1.549525E-6	-45.397037
1.54957E-6	-45.600361
1.549615E-6	-45.760991
1.54966E-6	-45.81533
1.549705E-6	-45.828606
1.54975E-6	-45.813673
1.549795E-6	-45.764265
1.54984E-6	-45.492891
1.549885E-6	-43.717133
1.54993E-6	-31.868195
1.549975E-6	-23.764406
1.55002E-6	-20.459506
1.550065E-6	-19.419538
1.55011E-6	-19.251836
1.550155E-6	-19.226321
1.5502E-6	-19.229957
1.550245E-6	-19.303319
1.55029E-6	-20.185892
1.550335E-6	-23.329208
1.55038E-6	-30.391013
1.550425E-6	-40.071815
1.55047E-6	-44.537042
1.550515E-6	-45.543958
1.55056E-6	-45.73001
1.550605E-6	-45.774102
1.55065E-6	-45.785606
1.550695E-6	-45.774102
1.55074E-6	-45.632015
1.550785E-6	-45.421181
1.55083E-6	-45.275361
1.550875E-6	-45.236032
1.55092E-6	-45.224447
1.550965E-6	-45.234582
1.55101E-6	-45.22734
1.551055E-6	-45.214335
1.5511E-6	-45.259295
1.551145E-6	-45.415132
1.55119E-6	-45.633604
1.551235E-6	-45.764265
1.55128E-6	-45.785606
1.551325E-6	-45.77082
1.55137E-6	-45.774102
1.551415E-6	-45.76918
1.55146E-6	-45.774102
1.551505E-6	-45.728386
1.55155E-6	-45.554868
1.551595E-6	-45.320961
1.55164E-6	-45.202808
1.551685E-6	-45.175552
1.55173E-6	-45.175552
1.551775E-6	-45.165554
1.55182E-6	-45.155578
1.551865E-6	-45.145625
1.55191E-6	-45.204247
1.551955E-6	-45.397037
1.552E-6	-45.616159
1.552045E-6	-45.733261
1.55209E-6	-45.733261
1.552135E-6	-45.725139
1.55218E-6	-45.728386
1.552225E-6	-45.746288
1.55227E-6	-45.734887
1.552315E-6	-45.663902
1.55236E-6	-45.456125
1.552405E-6	-45.238933
1.55245E-6	-45.132862
1.552495E-6	-45.113083
1.55254E-6	-45.118725
1.552585E-6	-45.107448
1.55263E-6	-45.09901
1.552675E-6	-45.09901
1.55272E-6	-45.176982
1.552765E-6	-45.386516
1.55281E-6	-45.597208
1.552855E-6	-45.675117
1.5529E-6	-45.679933
1.552945E-6	-45.686362
1.55299E-6	-45.691191
1.553035E-6	-45.699249
1.55308E-6	-45.683147
1.553125E-6	-45.590909
1.55317E-6	-45.362563
1.553215E-6	-45.161275
1.55326E-6	-45.07519
1.553305E-6	-45.055671
1.55335E-6	-45.045944
1.553395E-6	-45.032087
1.55344E-6	-45.023794
1.553485E-6	-45.030704
1.55353E-6	-45.142786
1.553575E-6	-45.358086
1.55362E-6	-45.554868
1.553665E-6	-45.630427
1.55371E-6	-45.644741
1.553755E-6	-45.651119
1.5538E-6	-45.655908
1.553845E-6	-45.657505
1.55389E-6	-45.632015
1.553935E-6	-45.508303
1.55398E-6	-45.292956
1.554025E-6	-45.09199
1.55407E-6	-45.023794
1.554115E-6	-44.996263
1.55416E-6	-44.982563
1.554205E-6	-44.982563
1.55425E-6	-44.983931
1.554295E-6	-45.004504
1.55434E-6	-45.124374
1.554385E-6	-45.331324
1.55443E-6	-45.531523
1.554475E-6	-45.597208
1.55452E-6	-45.617742
1.554565E-6	-45.62091
1.55461E-6	-45.619325
1.554655E-6	-45.601938
1.5547E-6	-45.575202
1.554745E-6	-45.460704
1.55479E-6	-45.225893
1.554835E-6	-45.036239
1.55488E-6	-44.972998
1.554925E-6	-44.930893
1.55497E-6	-44.920093
1.555015E-6	-44.920093
1.55506E-6	-44.932245
1.555105E-6	-44.955291
1.55515E-6	-45.084982
1.555195E-6	-45.312097
1.55524E-6	-45.497509
1.555285E-6	-45.564241
1.55533E-6	-45.578339
1.555375E-6	-45.589336
1.55542E-6	-45.590909
1.555465E-6	-45.578339
1.55551E-6	-45.543958
1.555555E-6	-45.418156
1.5556E-6	-45.179844
1.555645E-6	-44.994891
1.55569E-6	-44.930893
1.555735E-6	-44.90932
1.55578E-6	-44.9026
1.555825E-6	-44.9026
1.55587E-6	-44.905286
1.555915E-6	-44.945787
1.55596E-6	-45.062632
1.556005E-6	-45.304725
1.55605E-6	-45.495969
1.556095E-6	-45.564241
1.55614E-6	-45.586191
1.556185E-6	-45.58462
1.55623E-6	-45.56737
1.556275E-6	-45.562678
1.55632E-6	-45.543958
1.556365E-6	-45.409092
1.55641E-6	-45.158426
1.556455E-6	-44.975729
1.5565E-6	-44.905286
1.556545E-6	-44.895891
1.55659E-6	-44.897232
1.556635E-6	-44.90663
1.55668E-6	-44.91201
1.556725E-6	-44.932245
1.55677E-6	-45.077985
1.556815E-6	-45.335773
1.55686E-6	-45.533075
1.556905E-6	-45.595632
1.55695E-6	-45.606673
1.556995E-6	-45.589336
1.55704E-6	-45.590909
1.557085E-6	-45.595632
1.55713E-6	-45.57677
1.557175E-6	-45.44546
1.55722E-6	-45.181276
1.557265E-6	-44.997635
1.55731E-6	-44.936303
1.557355E-6	-44.93495
1.5574E-6	-44.9485
1.557445E-6	-44.962093
1.55749E-6	-44.963455
1.557535E-6	-44.990778
1.55758E-6	-45.141367
1.557625E-6	-45.401554
1.55767E-6	-45.598784
1.557715E-6	-45.665502
1.55776E-6	-45.668705
1.557805E-6	-45.668705
1.55785E-6	-45.670307
1.557895E-6	-45.67191
1.55794E-6	-45.665502
1.557985E-6	-45.516029
1.55803E-6	-45.262212
1.558075E-6	-45.073793
1.55812E-6	-45.022413
1.558165E-6	-45.026556
1.55821E-6	-45.045944
1.558255E-6	-45.047333
1.5583E-6	-45.045944
1.558345E-6	-45.087784
1.55839E-6	-45.241836
1.558435E-6	-45.519123
1.55848E-6	-45.715412
1.558525E-6	-45.777385
1.55857E-6	-45.775743
1.558615E-6	-45.779028
1.55866E-6	-45.802094
1.558705E-6	-45.813673
1.55875E-6	-45.798792
1.558795E-6	-45.644741
1.55884E-6	-45.391022
1.558885E-6	-45.214335
1.55893E-6	-45.178413
1.558975E-6	-45.182708
1.55902E-6	-45.202808
1.559065E-6	-45.205687
1.55911E-6	-45.210009
1.559155E-6	-45.247648
1.5592E-6	-45.419668
1.559245E-6	-45.699249
1.55929E-6	-45.895602
1.559335E-6	-45.951663
1.55938E-6	-45.963648
1.559425E-6	-45.975667
1.55947E-6	-45.99462
1.559515E-6	-46.018863
1.55956E-6	-45.99462
1.559605E-6	-45.846927
1.55965E-6	-45.598784
1.559695E-6	-45.433304
1.55974E-6	-45.395532
1.559785E-6	-45.412111
1.55983E-6	-45.418156
1.559875E-6	-45.43027
1.55992E-6	-45.43027
1.559965E-6	-45.492891
1.56001E-6	-45.657505
1.560055E-6	-45.943122
1.5601E-6	-46.13501
1.560145E-6	-46.19427
1.56019E-6	-46.214204
1.560235E-6	-46.23423
1.56028E-6	-46.256183
1.560325E-6	-46.27088
1.56037E-6	-46.243364
1.560415E-6	-46.108339
1.56046E-6	-45.865326
1.560505E-6	-45.700863
1.56055E-6	-45.668705
1.560595E-6	-45.683147
1.56064E-6	-45.689581
1.560685E-6	-45.694412
1.56073E-6	-45.720273
1.560775E-6	-45.767541
1.56082E-6	-45.938006
1.560865E-6	-46.205132
1.56091E-6	-46.40544
1.560955E-6	-46.472388
1.561E-6	-46.493644
1.561045E-6	-46.524748
1.56109E-6	-46.552149
1.561135E-6	-46.561977
1.56118E-6	-46.550186
1.561225E-6	-46.428277
1.56127E-6	-46.205132
1.561315E-6	-46.044989
1.56136E-6	-46.004993
1.561405E-6	-46.006725
1.56145E-6	-46.022337
1.561495E-6	-46.038007
1.56154E-6	-46.06074
1.561585E-6	-46.11366
1.56163E-6	-46.267201
1.561675E-6	-46.5267
1.56172E-6	-46.724367
1.561765E-6	-46.806857
1.56181E-6	-46.848697
1.561855E-6	-46.878226
1.5619E-6	-46.903698
1.561945E-6	-46.912222
1.56199E-6	-46.907958
1.562035E-6	-46.808939
1.56208E-6	-46.601512
1.562125E-6	-46.416844
1.56217E-6	-46.38461
1.562215E-6	-46.365761
1.56226E-6	-46.38461
1.562305E-6	-46.409238
1.56235E-6	-46.432095
1.562395E-6	-46.482037
1.56244E-6	-46.623411
1.562485E-6	-46.869769
1.56253E-6	-47.088532
1.562575E-6	-47.194216
1.56262E-6	-47.23768
1.562665E-6	-47.265357
1.56271E-6	-47.288557
1.562755E-6	-47.302536
1.5628E-6	-47.304871
1.562845E-6	-47.2262
1.56289E-6	-47.028963
1.562935E-6	-46.840297
1.56298E-6	-46.790233
1.563025E-6	-46.781945
1.56307E-6	-46.806857
1.563115E-6	-46.831912
1.56316E-6	-46.867657
1.563205E-6	-46.903698
1.56325E-6	-47.033348
1.563295E-6	-47.265357
1.56334E-6	-47.515363
1.563385E-6	-47.624563
1.56343E-6	-47.675121
1.563475E-6	-47.692957
