Wavelength (nm)	Power (dBm)
1.525E-6	-45.001755
1.525045E-6	-44.812229
1.52509E-6	-44.680104
1.525135E-6	-44.509967
1.52518E-6	-44.329736
1.525225E-6	-44.19075
1.52527E-6	-44.037329
1.525315E-6	-43.867926
1.52536E-6	-43.7202
1.525405E-6	-43.597174
1.52545E-6	-43.427529
1.525495E-6	-43.269791
1.52554E-6	-43.134531
1.525585E-6	-42.975695
1.52563E-6	-42.824127
1.525675E-6	-42.716462
1.52572E-6	-42.58612
1.525765E-6	-42.427558
1.52581E-6	-42.339591
1.525855E-6	-42.229358
1.5259E-6	-42.124687
1.525945E-6	-42.023171
1.52599E-6	-41.93142
1.526035E-6	-41.803903
1.52608E-6	-41.695396
1.526125E-6	-41.602706
1.52617E-6	-41.494763
1.526215E-6	-41.403814
1.52626E-6	-41.18216
1.526305E-6	-41.125515
1.52635E-6	-40.959881
1.526395E-6	-40.868752
1.52644E-6	-40.72527
1.526485E-6	-40.631345
1.52653E-6	-40.539901
1.526575E-6	-40.457575
1.52662E-6	-40.391964
1.526665E-6	-40.310037
1.52671E-6	-40.2489
1.526755E-6	-40.231917
1.5268E-6	-40.11441
1.526845E-6	-40.027884
1.52689E-6	-40.008695
1.526935E-6	-39.875846
1.52698E-6	-39.742846
1.527025E-6	-39.653715
1.52707E-6	-39.597934
1.527115E-6	-39.442395
1.52716E-6	-39.370422
1.527205E-6	-39.248181
1.52725E-6	-39.215432
1.527295E-6	-39.161392
1.52734E-6	-39.111554
1.527385E-6	-39.034376
1.52743E-6	-39.013563
1.527475E-6	-39.034376
1.52752E-6	-38.982529
1.527565E-6	-38.948306
1.52761E-6	-38.944898
1.527655E-6	-38.904215
1.5277E-6	-38.857227
1.527745E-6	-38.833923
1.52779E-6	-38.774565
1.527835E-6	-38.667805
1.52788E-6	-38.601209
1.527925E-6	-38.495506
1.52797E-6	-38.458805
1.528015E-6	-38.41336
1.52806E-6	-38.38632
1.528105E-6	-38.365404
1.52815E-6	-38.398317
1.528195E-6	-38.395315
1.52824E-6	-38.44664
1.528285E-6	-38.452718
1.52833E-6	-38.513973
1.528375E-6	-38.483238
1.52842E-6	-38.50473
1.528465E-6	-38.467951
1.52851E-6	-38.486301
1.528555E-6	-38.458805
1.5286E-6	-38.419392
1.528645E-6	-38.317973
1.52869E-6	-38.241984
1.528735E-6	-38.215987
1.52878E-6	-38.247782
1.528825E-6	-38.253588
1.52887E-6	-38.282735
1.528915E-6	-38.23041
1.52896E-6	-38.300318
1.529005E-6	-38.377344
1.52905E-6	-38.44664
1.529095E-6	-38.535619
1.52914E-6	-38.557372
1.529185E-6	-38.572978
1.52923E-6	-38.554258
1.529275E-6	-38.566729
1.52932E-6	-38.588639
1.529365E-6	-38.607508
1.52941E-6	-38.489367
1.529455E-6	-38.44057
1.5295E-6	-38.422411
1.529545E-6	-38.416375
1.52959E-6	-38.44057
1.529635E-6	-38.480176
1.52968E-6	-38.486301
1.529725E-6	-38.523237
1.52977E-6	-38.620133
1.529815E-6	-38.677403
1.52986E-6	-38.843895
1.529905E-6	-38.817353
1.52995E-6	-38.880657
1.529995E-6	-38.890738
1.53004E-6	-38.91435
1.530085E-6	-38.904215
1.53013E-6	-38.904215
1.530175E-6	-38.827287
1.53022E-6	-38.748442
1.530265E-6	-38.690233
1.53031E-6	-38.709549
1.530355E-6	-38.745187
1.5304E-6	-38.771291
1.530445E-6	-38.748442
1.53049E-6	-38.768019
1.530535E-6	-38.837244
1.53058E-6	-38.972234
1.530625E-6	-39.08333
1.53067E-6	-39.179331
1.530715E-6	-39.157813
1.53076E-6	-39.150664
1.530805E-6	-39.172146
1.53085E-6	-39.219058
1.530895E-6	-39.226321
1.53094E-6	-39.161392
1.530985E-6	-39.023957
1.53103E-6	-38.965384
1.531075E-6	-38.951716
1.53112E-6	-38.992849
1.531165E-6	-38.955129
1.53121E-6	-39.034376
1.531255E-6	-39.020489
1.5313E-6	-39.048306
1.531345E-6	-39.197344
1.53139E-6	-39.295927
1.531435E-6	-39.347939
1.53148E-6	-39.362914
1.531525E-6	-39.385475
1.53157E-6	-39.411945
1.531615E-6	-39.389247
1.53166E-6	-39.457701
1.531705E-6	-39.37418
1.53175E-6	-39.255493
1.531795E-6	-39.208188
1.53184E-6	-39.168559
1.531885E-6	-39.19013
1.53193E-6	-39.168559
1.531975E-6	-39.182927
1.53202E-6	-39.182927
1.532065E-6	-39.233596
1.53211E-6	-39.325572
1.532155E-6	-39.430951
1.5322E-6	-39.531148
1.532245E-6	-39.54677
1.53229E-6	-39.523358
1.532335E-6	-39.562449
1.53238E-6	-39.578184
1.532425E-6	-39.582127
1.53247E-6	-39.538952
1.532515E-6	-39.480761
1.53256E-6	-39.404366
1.532605E-6	-39.351678
1.53265E-6	-39.318141
1.532695E-6	-39.303319
1.53274E-6	-39.359166
1.532785E-6	-39.351678
1.53283E-6	-39.370422
1.532875E-6	-39.430951
1.53292E-6	-39.562449
1.532965E-6	-39.649707
1.53301E-6	-39.665762
1.533055E-6	-39.681877
1.5331E-6	-39.702105
1.533145E-6	-39.710223
1.53319E-6	-39.755143
1.533235E-6	-39.702105
1.53328E-6	-39.669786
1.533325E-6	-39.558524
1.53337E-6	-39.523358
1.533415E-6	-39.496202
1.53346E-6	-39.465374
1.533505E-6	-39.480761
1.53355E-6	-39.50782
1.533595E-6	-39.550685
1.53364E-6	-39.578184
1.533685E-6	-39.637705
1.53373E-6	-39.738755
1.533775E-6	-39.800533
1.53382E-6	-39.792245
1.533865E-6	-39.825493
1.53391E-6	-39.846402
1.533955E-6	-39.858997
1.534E-6	-39.854795
1.534045E-6	-39.838026
1.53409E-6	-39.792245
1.534135E-6	-39.689957
1.53418E-6	-39.661743
1.534225E-6	-39.645703
1.53427E-6	-39.649707
1.534315E-6	-39.694003
1.53436E-6	-39.669786
1.534405E-6	-39.718356
1.53445E-6	-39.722428
1.534495E-6	-39.846402
1.53454E-6	-39.880069
1.534585E-6	-39.905491
1.53463E-6	-39.93534
1.534675E-6	-39.969705
1.53472E-6	-39.943906
1.534765E-6	-39.918258
1.53481E-6	-39.93962
1.534855E-6	-39.913998
1.5349E-6	-39.850597
1.534945E-6	-39.800533
1.53499E-6	-39.771594
1.535035E-6	-39.75925
1.53508E-6	-39.75925
1.535125E-6	-39.812995
1.53517E-6	-39.796387
1.535215E-6	-39.821323
1.53526E-6	-39.892761
1.535305E-6	-39.943906
1.53535E-6	-40.00478
1.535395E-6	-40.043209
1.53544E-6	-40.025262
1.535485E-6	-40.053749
1.53553E-6	-40.017843
1.535575E-6	-40.023952
1.53562E-6	-40.003476
1.535665E-6	-39.965395
1.53571E-6	-39.905491
1.535755E-6	-39.858997
1.5358E-6	-39.858997
1.535845E-6	-39.875846
1.53589E-6	-39.884296
1.535935E-6	-39.884296
1.53598E-6	-39.897
1.536025E-6	-39.909743
1.53607E-6	-39.978339
1.536115E-6	-40.001738
1.53616E-6	-40.014791
1.536205E-6	-40.051991
1.53625E-6	-40.034446
1.536295E-6	-40.041017
1.53634E-6	-40.049355
1.536385E-6	-40.055069
1.53643E-6	-40.017843
1.536475E-6	-39.956786
1.53652E-6	-39.880069
1.536565E-6	-39.863203
1.53661E-6	-39.892761
1.536655E-6	-39.905491
1.5367E-6	-39.905491
1.536745E-6	-39.880069
1.53679E-6	-39.888526
1.536835E-6	-39.931063
1.53688E-6	-39.982663
1.536925E-6	-40.047159
1.53697E-6	-40.048037
1.537015E-6	-40.02046
1.53706E-6	-40.01
1.537105E-6	-40.030945
1.53715E-6	-40.011742
1.537195E-6	-40.025699
1.53724E-6	-39.956786
1.537285E-6	-39.884296
1.53733E-6	-39.863203
1.537375E-6	-39.875846
1.53742E-6	-39.871628
1.537465E-6	-39.838026
1.53751E-6	-39.854795
1.537555E-6	-39.846402
1.5376E-6	-39.871628
1.537645E-6	-39.93534
1.53769E-6	-39.982663
1.537735E-6	-40.010436
1.53778E-6	-40
1.537825E-6	-39.986991
1.53787E-6	-39.986991
1.537915E-6	-39.986991
1.53796E-6	-39.982663
1.538005E-6	-39.93962
1.53805E-6	-39.884296
1.538095E-6	-39.854795
1.53814E-6	-39.838026
1.538185E-6	-39.846402
1.53823E-6	-39.842212
1.538275E-6	-39.838026
1.53832E-6	-39.858997
1.538365E-6	-39.833845
1.53841E-6	-39.884296
1.538455E-6	-39.952488
1.5385E-6	-39.965395
1.538545E-6	-39.986991
1.53859E-6	-39.97402
1.538635E-6	-39.986991
1.53868E-6	-39.982663
1.538725E-6	-39.991323
1.53877E-6	-39.969705
1.538815E-6	-39.905491
1.53886E-6	-39.867413
1.538905E-6	-39.850597
1.53895E-6	-39.858997
1.538995E-6	-39.871628
1.53904E-6	-39.867413
1.539085E-6	-39.854795
1.53913E-6	-39.858997
1.539175E-6	-39.875846
1.53922E-6	-39.956786
1.539265E-6	-39.991323
1.53931E-6	-40.012177
1.539355E-6	-40.008259
1.5394E-6	-40.044964
1.539445E-6	-40.016099
1.53949E-6	-40.02046
1.539535E-6	-40.036197
1.53958E-6	-39.986991
1.539625E-6	-39.943906
1.53967E-6	-39.897
1.539715E-6	-39.905491
1.53976E-6	-39.905491
1.539805E-6	-39.931063
1.53985E-6	-39.905491
1.539895E-6	-39.918258
1.53994E-6	-39.931063
1.539985E-6	-39.952488
1.54003E-6	-40.026573
1.540075E-6	-40.067843
1.54012E-6	-40.046281
1.540165E-6	-40.059029
1.54021E-6	-40.105057
1.540255E-6	-40.095279
1.5403E-6	-40.099277
1.540345E-6	-40.086853
1.54039E-6	-40.028758
1.540435E-6	-39.995659
1.54048E-6	-39.991323
1.540525E-6	-39.952488
1.54057E-6	-39.965395
1.540615E-6	-39.948195
1.54066E-6	-39.952488
1.540705E-6	-39.978339
1.54075E-6	-40.008695
1.540795E-6	-40.080212
1.54084E-6	-40.103278
1.540885E-6	-40.124678
1.54093E-6	-40.136762
1.540975E-6	-40.156077
1.54102E-6	-40.162835
1.541065E-6	-40.169604
1.54111E-6	-40.175478
1.541155E-6	-40.149779
1.5412E-6	-40.07977
1.541245E-6	-40.059029
1.54129E-6	-40.024389
1.541335E-6	-40.00478
1.54138E-6	-40.036635
1.541425E-6	-40.031382
1.54147E-6	-40.039702
1.541515E-6	-40.05991
1.54156E-6	-40.102833
1.541605E-6	-40.189973
1.54165E-6	-40.211806
1.541695E-6	-40.220479
1.54174E-6	-40.242466
1.541785E-6	-40.245682
1.54183E-6	-40.238335
1.541875E-6	-40.254883
1.54192E-6	-40.263642
1.541965E-6	-40.203151
1.54201E-6	-40.163286
1.542055E-6	-40.107727
1.5421E-6	-40.10061
1.542145E-6	-40.099721
1.54219E-6	-40.126019
1.542235E-6	-40.115302
1.54228E-6	-40.137659
1.542325E-6	-40.145286
1.54237E-6	-40.201786
1.542415E-6	-40.277509
1.54246E-6	-40.307705
1.542505E-6	-40.321713
1.54255E-6	-40.340461
1.542595E-6	-40.34234
1.54264E-6	-40.345631
1.542685E-6	-40.326861
1.54273E-6	-40.332015
1.542775E-6	-40.290955
1.54282E-6	-40.238335
1.542865E-6	-40.203606
1.54291E-6	-40.193604
1.542955E-6	-40.193604
1.543E-6	-40.197239
1.543045E-6	-40.230542
1.54309E-6	-40.215456
1.543135E-6	-40.247521
1.54318E-6	-40.299322
1.543225E-6	-40.424406
1.54327E-6	-40.451306
1.543315E-6	-40.439757
1.54336E-6	-40.455645
1.543405E-6	-40.442161
1.54345E-6	-40.457575
1.543495E-6	-40.464336
1.54354E-6	-40.452752
1.543585E-6	-40.406724
1.54363E-6	-40.345161
1.543675E-6	-40.303046
1.54372E-6	-40.321713
1.543765E-6	-40.330608
1.54381E-6	-40.362122
1.543855E-6	-40.364955
1.5439E-6	-40.372519
1.543945E-6	-40.414361
1.54399E-6	-40.512448
1.544035E-6	-40.555667
1.54408E-6	-40.609303
1.544125E-6	-40.605806
1.54417E-6	-40.606805
1.544215E-6	-40.604308
1.54426E-6	-40.615303
1.544305E-6	-40.621312
1.54435E-6	-40.562582
1.544395E-6	-40.498787
1.54444E-6	-40.444084
1.544485E-6	-40.460954
1.54453E-6	-40.463369
1.544575E-6	-40.465786
1.54462E-6	-40.492945
1.544665E-6	-40.496838
1.54471E-6	-40.51587
1.544755E-6	-40.593341
1.5448E-6	-40.679831
1.544845E-6	-40.734003
1.54489E-6	-40.73709
1.544935E-6	-40.723217
1.54498E-6	-40.720141
1.545025E-6	-40.685421
1.54507E-6	-40.457575
1.545115E-6	-36.181632
1.54516E-6	-26.595559
1.545205E-6	-21.394823
1.54525E-6	-19.34047
1.545295E-6	-18.863908
1.54534E-6	-18.794261
1.545385E-6	-18.774565
1.54543E-6	-18.814046
1.545475E-6	-19.259153
1.54552E-6	-21.24071
1.545565E-6	-26.317131
1.54561E-6	-35.011383
1.545655E-6	-39.767475
1.5457E-6	-40.662597
1.545745E-6	-40.819697
1.54579E-6	-40.873529
1.545835E-6	-40.888957
1.54588E-6	-40.890556
1.545925E-6	-40.879374
1.54597E-6	-40.805558
1.546015E-6	-40.746879
1.54606E-6	-40.725783
1.546105E-6	-40.747911
1.54615E-6	-40.755656
1.546195E-6	-40.74327
1.54624E-6	-40.74327
1.546285E-6	-40.758241
1.54633E-6	-40.82232
1.546375E-6	-40.901232
1.54642E-6	-40.961507
1.546465E-6	-40.989233
1.54651E-6	-40.98106
1.546555E-6	-41.000701
1.5466E-6	-40.993052
1.546645E-6	-40.910327
1.54669E-6	-40.090399
1.546735E-6	-30.950141
1.54678E-6	-23.372422
1.546825E-6	-20.123337
1.54687E-6	-19.129288
1.546915E-6	-18.972234
1.54696E-6	-18.961963
1.547005E-6	-18.924509
1.54705E-6	-19.072794
1.547095E-6	-20.242925
1.54714E-6	-23.72839
1.547185E-6	-31.023729
1.54723E-6	-38.827287
1.547275E-6	-40.662597
1.54732E-6	-40.993052
1.547365E-6	-41.072934
1.54741E-6	-41.102502
1.547455E-6	-41.094113
1.5475E-6	-41.082396
1.547545E-6	-41.040805
1.54759E-6	-40.960423
1.547635E-6	-40.929113
1.54768E-6	-40.925349
1.547725E-6	-40.931803
1.54777E-6	-40.919441
1.547815E-6	-40.919441
1.54786E-6	-40.935572
1.547905E-6	-40.970729
1.54795E-6	-41.025379
1.547995E-6	-41.106423
1.54804E-6	-41.136785
1.548085E-6	-41.148085
1.54813E-6	-41.154878
1.548175E-6	-41.166225
1.54822E-6	-41.112029
1.548265E-6	-40.863981
1.54831E-6	-36.236056
1.548355E-6	-26.110112
1.5484E-6	-21.29362
1.548445E-6	-19.423339
1.54849E-6	-19.017025
1.548535E-6	-18.972234
1.54858E-6	-18.917733
1.548625E-6	-18.958544
1.54867E-6	-19.41574
1.548715E-6	-21.598312
1.54876E-6	-26.888822
1.548805E-6	-35.856953
1.54885E-6	-40.142144
1.548895E-6	-41.002889
1.54894E-6	-41.159981
1.548985E-6	-41.195294
1.54903E-6	-41.198727
1.549075E-6	-41.18102
1.54912E-6	-41.157712
1.549165E-6	-41.099145
1.54921E-6	-41.036943
1.549255E-6	-41.011652
1.5493E-6	-40.988687
1.549345E-6	-40.985417
1.54939E-6	-40.991961
1.549435E-6	-41.002342
1.54948E-6	-41.005078
1.549525E-6	-41.050197
1.54957E-6	-41.115958
1.549615E-6	-41.184442
1.54966E-6	-41.203881
1.549705E-6	-41.218805
1.54975E-6	-41.216506
1.549795E-6	-41.184442
1.54984E-6	-41.083511
1.549885E-6	-40.433994
1.54993E-6	-31.783555
1.549975E-6	-23.602148
1.55002E-6	-20.194513
1.550065E-6	-19.086848
1.55011E-6	-18.900841
1.550155E-6	-18.860566
1.5502E-6	-18.857227
1.550245E-6	-18.910969
1.55029E-6	-19.75104
1.550335E-6	-22.708352
1.55038E-6	-29.535048
1.550425E-6	-38.144578
1.55047E-6	-40.611302
1.550515E-6	-41.093555
1.55056E-6	-41.182731
1.550605E-6	-41.186153
1.55065E-6	-41.202162
1.550695E-6	-41.203881
1.55074E-6	-41.166225
1.550785E-6	-41.077384
1.55083E-6	-41.010555
1.550875E-6	-40.989778
1.55092E-6	-40.972359
1.550965E-6	-40.996875
1.55101E-6	-41.001795
1.551055E-6	-40.993598
1.5511E-6	-41.003436
1.551145E-6	-41.046327
1.55119E-6	-41.142996
1.551235E-6	-41.201017
1.55128E-6	-41.212485
1.551325E-6	-41.2056
1.55137E-6	-41.205027
1.551415E-6	-41.195294
1.55146E-6	-41.203881
1.551505E-6	-41.194722
1.55155E-6	-41.132274
1.551595E-6	-41.038046
1.55164E-6	-40.986507
1.551685E-6	-40.962049
1.55173E-6	-40.966929
1.551775E-6	-40.973445
1.55182E-6	-40.9691
1.551865E-6	-40.967472
1.55191E-6	-40.977795
1.551955E-6	-41.055178
1.552E-6	-41.154312
1.552045E-6	-41.209041
1.55209E-6	-41.213059
1.552135E-6	-41.201017
1.55218E-6	-41.190721
1.552225E-6	-41.206747
1.55227E-6	-41.211911
1.552315E-6	-41.19415
1.55236E-6	-41.112029
1.552405E-6	-41.007816
1.55245E-6	-40.967472
1.552495E-6	-40.952304
1.55254E-6	-40.977795
1.552585E-6	-40.976163
1.55263E-6	-40.968557
1.552675E-6	-40.959881
1.55272E-6	-40.986507
1.552765E-6	-41.075715
1.55281E-6	-41.16225
1.552855E-6	-41.208468
1.5529E-6	-41.205027
1.552945E-6	-41.19415
1.55299E-6	-41.198154
1.553035E-6	-41.210763
1.55308E-6	-41.206747
1.553125E-6	-41.185583
1.55317E-6	-41.089646
1.553215E-6	-41.006173
1.55326E-6	-40.959881
1.553305E-6	-40.968557
1.55335E-6	-40.975619
1.553395E-6	-40.964217
1.55344E-6	-40.958798
1.553485E-6	-40.959881
1.55353E-6	-41.006173
1.553575E-6	-41.096908
1.55362E-6	-41.186153
1.553665E-6	-41.206747
1.55371E-6	-41.199872
1.553755E-6	-41.206747
1.5538E-6	-41.226287
1.553845E-6	-41.222832
1.55389E-6	-41.21823
1.553935E-6	-41.173616
1.55398E-6	-41.082396
1.554025E-6	-41.011652
1.55407E-6	-40.972902
1.554115E-6	-40.985962
1.55416E-6	-40.973445
1.554205E-6	-40.965844
1.55425E-6	-40.953926
1.554295E-6	-40.974532
1.55434E-6	-41.026479
1.554385E-6	-41.117643
1.55443E-6	-41.206174
1.554475E-6	-41.223983
1.55452E-6	-41.224559
1.554565E-6	-41.232627
1.55461E-6	-41.247072
1.554655E-6	-41.252863
1.5547E-6	-41.234935
1.554745E-6	-41.183301
1.55479E-6	-41.090762
1.554835E-6	-41.014394
1.55488E-6	-40.991961
1.554925E-6	-40.991415
1.55497E-6	-40.968015
1.555015E-6	-40.964217
1.55506E-6	-40.971272
1.555105E-6	-40.982693
1.55515E-6	-41.05075
1.555195E-6	-41.141866
1.55524E-6	-41.206747
1.555285E-6	-41.229167
1.55533E-6	-41.240132
1.555375E-6	-41.252863
1.55542E-6	-41.259243
1.555465E-6	-41.256342
1.55551E-6	-41.236089
1.555555E-6	-41.187295
1.5556E-6	-41.09579
1.555645E-6	-41.031983
1.55569E-6	-41.008911
1.555735E-6	-40.996875
1.55578E-6	-40.998514
1.555825E-6	-40.988142
1.55587E-6	-40.999061
1.555915E-6	-41.013297
1.55596E-6	-41.076271
1.556005E-6	-41.155445
1.55605E-6	-41.228015
1.556095E-6	-41.265631
1.55614E-6	-41.284271
1.556185E-6	-41.281936
1.55623E-6	-41.273776
1.556275E-6	-41.269702
1.55632E-6	-41.260403
1.556365E-6	-41.211337
1.55641E-6	-41.127767
1.556455E-6	-41.053517
1.5565E-6	-41.023729
1.556545E-6	-41.011103
1.55659E-6	-41.001795
1.556635E-6	-41.014394
1.55668E-6	-41.028129
1.556725E-6	-41.035289
1.55677E-6	-41.089646
1.556815E-6	-41.185583
1.55686E-6	-41.260984
1.556905E-6	-41.288943
1.55695E-6	-41.310031
1.556995E-6	-41.305336
1.55704E-6	-41.298303
1.557085E-6	-41.30299
1.55713E-6	-41.301232
1.557175E-6	-41.253443
1.55722E-6	-41.170772
1.557265E-6	-41.080725
1.55731E-6	-41.052963
1.557355E-6	-41.044117
1.5574E-6	-41.040805
1.557445E-6	-41.054071
1.55749E-6	-41.064047
1.557535E-6	-41.077384
1.55758E-6	-41.126078
1.557625E-6	-41.235512
1.55767E-6	-41.310031
1.557715E-6	-41.345999
1.55776E-6	-41.36142
1.557805E-6	-41.362015
1.55785E-6	-41.347775
1.557895E-6	-41.350738
1.55794E-6	-41.344815
1.557985E-6	-41.300646
1.55803E-6	-41.204454
1.558075E-6	-41.122702
1.55812E-6	-41.084068
1.558165E-6	-41.09579
1.55821E-6	-41.105302
1.558255E-6	-41.114274
1.5583E-6	-41.121015
1.558345E-6	-41.132274
1.55839E-6	-41.18102
1.558435E-6	-41.290112
1.55848E-6	-41.372129
1.558525E-6	-41.401415
1.55857E-6	-41.412824
1.558615E-6	-41.400216
1.55866E-6	-41.397219
1.558705E-6	-41.403814
1.55875E-6	-41.408617
1.558795E-6	-41.369152
1.55884E-6	-41.269702
1.558885E-6	-41.188437
1.55893E-6	-41.175893
1.558975E-6	-41.176463
1.55902E-6	-41.19015
1.559065E-6	-41.19415
1.55911E-6	-41.192436
1.559155E-6	-41.199299
1.5592E-6	-41.256342
1.559245E-6	-41.373916
1.55929E-6	-41.44905
1.559335E-6	-41.473371
1.55938E-6	-41.478861
1.559425E-6	-41.471542
1.55947E-6	-41.488028
1.559515E-6	-41.499667
1.55956E-6	-41.495376
1.559605E-6	-41.438151
1.55965E-6	-41.347775
1.559695E-6	-41.281936
1.55974E-6	-41.258082
1.559785E-6	-41.267957
1.55983E-6	-41.281353
1.559875E-6	-41.28077
1.55992E-6	-41.278437
1.559965E-6	-41.284271
1.56001E-6	-41.353703
1.560055E-6	-41.459978
1.5601E-6	-41.545299
1.560145E-6	-41.560824
1.56019E-6	-41.560202
1.560235E-6	-41.562068
1.56028E-6	-41.576404
1.560325E-6	-41.583903
1.56037E-6	-41.588283
1.560415E-6	-41.526742
1.56046E-6	-41.435128
1.560505E-6	-41.371533
1.56055E-6	-41.347775
1.560595E-6	-41.375108
1.56064E-6	-41.362015
1.560685E-6	-41.372725
1.56073E-6	-41.37332
1.560775E-6	-41.381073
1.56082E-6	-41.453297
1.560865E-6	-41.547159
1.56091E-6	-41.619069
1.560955E-6	-41.637392
1.561E-6	-41.624747
1.561045E-6	-41.626641
1.56109E-6	-41.643094
1.561135E-6	-41.655157
1.56118E-6	-41.644997
1.561225E-6	-41.597684
1.56127E-6	-41.510723
1.561315E-6	-41.460586
1.56136E-6	-41.451476
1.561405E-6	-41.463018
1.56145E-6	-41.45937
1.561495E-6	-41.451476
1.56154E-6	-41.459978
1.561585E-6	-41.480693
1.56163E-6	-41.533537
1.561675E-6	-41.618438
1.56172E-6	-41.678105
1.561765E-6	-41.688344
1.56181E-6	-41.688984
1.561855E-6	-41.704389
1.5619E-6	-41.714045
1.561945E-6	-41.717269
1.56199E-6	-41.709537
1.562035E-6	-41.664704
1.56208E-6	-41.60522
1.562125E-6	-41.54902
1.56217E-6	-41.535392
1.562215E-6	-41.537248
1.56226E-6	-41.528594
1.562305E-6	-41.520574
1.56235E-6	-41.526742
1.562395E-6	-41.5422
1.56244E-6	-41.585154
1.562485E-6	-41.654521
1.56253E-6	-41.711468
1.562575E-6	-41.7276
1.56262E-6	-41.733422
1.562665E-6	-41.755487
1.56271E-6	-41.76591
1.562755E-6	-41.767214
1.5628E-6	-41.750935
1.562845E-6	-41.718559
1.56289E-6	-41.65961
1.562935E-6	-41.615917
1.56298E-6	-41.607734
1.563025E-6	-41.598939
1.56307E-6	-41.590788
1.563115E-6	-41.589535
1.56316E-6	-41.590788
1.563205E-6	-41.606477
1.56325E-6	-41.639925
1.563295E-6	-41.699891
1.56334E-6	-41.759393
1.563385E-6	-41.775704
1.56343E-6	-41.79142
1.563475E-6	-41.805219
