Wavelength (nm)	Power (dBm)
1.525E-6	-47.564659
1.525045E-6	-47.437635
1.52509E-6	-47.32359
1.525135E-6	-47.207895
1.52518E-6	-47.084092
1.525225E-6	-46.955095
1.52527E-6	-46.836102
1.525315E-6	-46.724367
1.52536E-6	-46.629403
1.525405E-6	-46.524748
1.52545E-6	-46.40544
1.525495E-6	-46.280091
1.52554E-6	-46.154674
1.525585E-6	-46.078309
1.52563E-6	-45.979106
1.525675E-6	-45.851937
1.52572E-6	-45.75445
1.525765E-6	-45.670307
1.52581E-6	-45.58462
1.525855E-6	-45.482136
1.5259E-6	-45.407583
1.525945E-6	-45.343198
1.52599E-6	-45.238933
1.526035E-6	-45.164127
1.52608E-6	-45.080783
1.526125E-6	-45.023794
1.52617E-6	-44.94172
1.526215E-6	-44.847887
1.52626E-6	-44.736607
1.526305E-6	-44.661009
1.52635E-6	-44.569258
1.526395E-6	-44.492826
1.52644E-6	-44.434563
1.526485E-6	-44.306261
1.52653E-6	-44.257372
1.526575E-6	-44.180503
1.52662E-6	-44.134127
1.526665E-6	-44.086014
1.52671E-6	-44.021952
1.526755E-6	-43.969639
1.5268E-6	-43.934037
1.526845E-6	-43.841551
1.52689E-6	-43.795516
1.526935E-6	-43.750994
1.52698E-6	-43.674415
1.527025E-6	-43.626103
1.52707E-6	-43.560541
1.527115E-6	-43.484313
1.52716E-6	-43.428485
1.527205E-6	-43.375255
1.52725E-6	-43.332013
1.527295E-6	-43.271635
1.52734E-6	-43.203904
1.527385E-6	-43.188493
1.52743E-6	-43.182162
1.527475E-6	-43.147959
1.52752E-6	-43.147959
1.527565E-6	-43.099812
1.52761E-6	-43.065369
1.527655E-6	-43.07682
1.5277E-6	-42.999889
1.527745E-6	-42.982594
1.52779E-6	-42.935383
1.527835E-6	-42.926002
1.52788E-6	-42.862575
1.527925E-6	-42.805858
1.52797E-6	-42.774483
1.528015E-6	-42.776952
1.52806E-6	-42.763802
1.528105E-6	-42.749873
1.52815E-6	-42.751509
1.528195E-6	-42.755603
1.52824E-6	-42.746602
1.528285E-6	-42.789317
1.52833E-6	-42.776952
1.528375E-6	-42.776129
1.52842E-6	-42.777775
1.528465E-6	-42.762161
1.52851E-6	-42.776952
1.528555E-6	-42.76134
1.5286E-6	-42.75888
1.528645E-6	-42.709973
1.52869E-6	-42.656003
1.528735E-6	-42.684918
1.52878E-6	-42.635238
1.528825E-6	-42.682501
1.52887E-6	-42.678476
1.528915E-6	-42.69864
1.52896E-6	-42.675258
1.529005E-6	-42.727842
1.52905E-6	-42.7597
1.529095E-6	-42.804201
1.52914E-6	-42.835793
1.529185E-6	-42.834958
1.52923E-6	-42.800889
1.529275E-6	-42.842473
1.52932E-6	-42.831623
1.529365E-6	-42.835793
1.52941E-6	-42.807516
1.529455E-6	-42.790968
1.5295E-6	-42.7597
1.529545E-6	-42.771194
1.52959E-6	-42.813323
1.529635E-6	-42.803373
1.52968E-6	-42.823295
1.529725E-6	-42.823295
1.52977E-6	-42.87182
1.529815E-6	-42.920043
1.52986E-6	-42.947351
1.529905E-6	-42.966226
1.52995E-6	-42.979143
1.529995E-6	-42.975695
1.53004E-6	-42.975695
1.530085E-6	-43.011169
1.53013E-6	-43.032942
1.530175E-6	-42.990368
1.53022E-6	-42.943928
1.530265E-6	-42.926854
1.53031E-6	-42.963648
1.530355E-6	-42.983457
1.5304E-6	-42.988639
1.530445E-6	-43.000756
1.53049E-6	-43.011169
1.530535E-6	-43.025091
1.53058E-6	-43.06361
1.530625E-6	-43.117582
1.53067E-6	-43.142583
1.530715E-6	-43.157832
1.53076E-6	-43.128279
1.530805E-6	-43.14527
1.53085E-6	-43.172234
1.530895E-6	-43.172234
1.53094E-6	-43.151546
1.530985E-6	-43.138108
1.53103E-6	-43.120254
1.531075E-6	-43.095381
1.53112E-6	-43.13185
1.531165E-6	-43.155137
1.53121E-6	-43.157832
1.531255E-6	-43.14527
1.5313E-6	-43.153341
1.531345E-6	-43.225756
1.53139E-6	-43.262421
1.531435E-6	-43.278097
1.53148E-6	-43.296614
1.531525E-6	-43.291977
1.53157E-6	-43.284569
1.531615E-6	-43.329208
1.53166E-6	-43.342314
1.531705E-6	-43.314277
1.53175E-6	-43.284569
1.531795E-6	-43.263341
1.53184E-6	-43.240385
1.531885E-6	-43.233978
1.53193E-6	-43.28087
1.531975E-6	-43.248635
1.53202E-6	-43.257821
1.532065E-6	-43.295686
1.53211E-6	-43.304972
1.532155E-6	-43.386607
1.5322E-6	-43.394191
1.532245E-6	-43.380927
1.53229E-6	-43.396089
1.532335E-6	-43.411304
1.53238E-6	-43.432312
1.532425E-6	-43.444774
1.53247E-6	-43.458235
1.532515E-6	-43.385659
1.53256E-6	-43.375255
1.532605E-6	-43.363933
1.53265E-6	-43.387554
1.532695E-6	-43.39514
1.53274E-6	-43.400838
1.532785E-6	-43.37809
1.53283E-6	-43.391345
1.532875E-6	-43.426573
1.53292E-6	-43.498868
1.532965E-6	-43.494011
1.53301E-6	-43.522259
1.533055E-6	-43.519329
1.5331E-6	-43.521282
1.533145E-6	-43.556599
1.53319E-6	-43.558569
1.533235E-6	-43.5635
1.53328E-6	-43.539886
1.533325E-6	-43.511523
1.53337E-6	-43.484313
1.533415E-6	-43.52617
1.53346E-6	-43.477537
1.533505E-6	-43.495953
1.53355E-6	-43.49207
1.533595E-6	-43.513473
1.53364E-6	-43.544795
1.533685E-6	-43.565473
1.53373E-6	-43.576344
1.533775E-6	-43.628106
1.53382E-6	-43.65926
1.533865E-6	-43.673403
1.53391E-6	-43.668346
1.533955E-6	-43.669357
1.534E-6	-43.647174
1.534045E-6	-43.668346
1.53409E-6	-43.639135
1.534135E-6	-43.606131
1.53418E-6	-43.603143
1.534225E-6	-43.631111
1.53427E-6	-43.578324
1.534315E-6	-43.604139
1.53436E-6	-43.605135
1.534405E-6	-43.610118
1.53445E-6	-43.642148
1.534495E-6	-43.656235
1.53454E-6	-43.708963
1.534585E-6	-43.733517
1.53463E-6	-43.714067
1.534675E-6	-43.758211
1.53472E-6	-43.763373
1.534765E-6	-43.72327
1.53481E-6	-43.737623
1.534855E-6	-43.706924
1.5349E-6	-43.687592
1.534945E-6	-43.692671
1.53499E-6	-43.677452
1.535035E-6	-43.661277
1.53508E-6	-43.670368
1.535125E-6	-43.665315
1.53517E-6	-43.698774
1.535215E-6	-43.691655
1.53526E-6	-43.694704
1.535305E-6	-43.740705
1.53535E-6	-43.759243
1.535395E-6	-43.755116
1.53544E-6	-43.790316
1.535485E-6	-43.764406
1.53553E-6	-43.766473
1.535575E-6	-43.774751
1.53562E-6	-43.749964
1.535665E-6	-43.755116
1.53571E-6	-43.719177
1.535755E-6	-43.701828
1.5358E-6	-43.643152
1.535845E-6	-43.681505
1.53589E-6	-43.699791
1.535935E-6	-43.701828
1.53598E-6	-43.686577
1.536025E-6	-43.680492
1.53607E-6	-43.697756
1.536115E-6	-43.739678
1.53616E-6	-43.743789
1.536205E-6	-43.747905
1.53625E-6	-43.742761
1.536295E-6	-43.714067
1.53634E-6	-43.729415
1.536385E-6	-43.734543
1.53643E-6	-43.70081
1.536475E-6	-43.682519
1.53652E-6	-43.649186
1.536565E-6	-43.635121
1.53661E-6	-43.628106
1.536655E-6	-43.608124
1.5367E-6	-43.633116
1.536745E-6	-43.629107
1.53679E-6	-43.588235
1.536835E-6	-43.600158
1.53688E-6	-43.621102
1.536925E-6	-43.661277
1.53697E-6	-43.684548
1.537015E-6	-43.629107
1.53706E-6	-43.644157
1.537105E-6	-43.644157
1.53715E-6	-43.642148
1.537195E-6	-43.633116
1.53724E-6	-43.592205
1.537285E-6	-43.565473
1.53733E-6	-43.551677
1.537375E-6	-43.532043
1.53742E-6	-43.545777
1.537465E-6	-43.535963
1.53751E-6	-43.514448
1.537555E-6	-43.508599
1.5376E-6	-43.515424
1.537645E-6	-43.532043
1.53769E-6	-43.560541
1.537735E-6	-43.594192
1.53778E-6	-43.552661
1.537825E-6	-43.545777
1.53787E-6	-43.538905
1.537915E-6	-43.559555
1.53796E-6	-43.551677
1.538005E-6	-43.511523
1.53805E-6	-43.489159
1.538095E-6	-43.470771
1.53814E-6	-43.463052
1.538185E-6	-43.444774
1.53823E-6	-43.471737
1.538275E-6	-43.454384
1.53832E-6	-43.435185
1.538365E-6	-43.446694
1.53841E-6	-43.457272
1.538455E-6	-43.49207
1.5385E-6	-43.507625
1.538545E-6	-43.488189
1.53859E-6	-43.470771
1.538635E-6	-43.507625
1.53868E-6	-43.494982
1.538725E-6	-43.491099
1.53877E-6	-43.502758
1.538815E-6	-43.446694
1.53886E-6	-43.420841
1.538905E-6	-43.421795
1.53895E-6	-43.397988
1.538995E-6	-43.396089
1.53904E-6	-43.408447
1.539085E-6	-43.408447
1.53913E-6	-43.384713
1.539175E-6	-43.404641
1.53922E-6	-43.462088
1.539265E-6	-43.460161
1.53931E-6	-43.455347
1.539355E-6	-43.439977
1.5394E-6	-43.438059
1.539445E-6	-43.484313
1.53949E-6	-43.48722
1.539535E-6	-43.478504
1.53958E-6	-43.440936
1.539625E-6	-43.432312
1.53967E-6	-43.398938
1.539715E-6	-43.405592
1.53976E-6	-43.40369
1.539805E-6	-43.394191
1.53985E-6	-43.396089
1.539895E-6	-43.380927
1.53994E-6	-43.408447
1.539985E-6	-43.408447
1.54003E-6	-43.441895
1.540075E-6	-43.447655
1.54012E-6	-43.439018
1.540165E-6	-43.472703
1.54021E-6	-43.464981
1.540255E-6	-43.469805
1.5403E-6	-43.460161
1.540345E-6	-43.426573
1.54039E-6	-43.424661
1.540435E-6	-43.381873
1.54048E-6	-43.384713
1.540525E-6	-43.375255
1.54057E-6	-43.391345
1.540615E-6	-43.359224
1.54066E-6	-43.381873
1.540705E-6	-43.382819
1.54075E-6	-43.392294
1.540795E-6	-43.445734
1.54084E-6	-43.434227
1.540885E-6	-43.445734
1.54093E-6	-43.457272
1.540975E-6	-43.474636
1.54102E-6	-43.49207
1.541065E-6	-43.464981
1.54111E-6	-43.449577
1.541155E-6	-43.452461
1.5412E-6	-43.446694
1.541245E-6	-43.414163
1.54129E-6	-43.392294
1.541335E-6	-43.375255
1.54138E-6	-43.396089
1.541425E-6	-43.382819
1.54147E-6	-43.397038
1.541515E-6	-43.387554
1.54156E-6	-43.425617
1.541605E-6	-43.419886
1.54165E-6	-43.446694
1.541695E-6	-43.479472
1.54174E-6	-43.483344
1.541785E-6	-43.464981
1.54183E-6	-43.494011
1.541875E-6	-43.484313
1.54192E-6	-43.453422
1.541965E-6	-43.459198
1.54201E-6	-43.442855
1.542055E-6	-43.424661
1.5421E-6	-43.390397
1.542145E-6	-43.396089
1.54219E-6	-43.366761
1.542235E-6	-43.397988
1.54228E-6	-43.398938
1.542325E-6	-43.406544
1.54237E-6	-43.424661
1.542415E-6	-43.439018
1.54246E-6	-43.464016
1.542505E-6	-43.49984
1.54255E-6	-43.505678
1.542595E-6	-43.5164
1.54264E-6	-43.476569
1.542685E-6	-43.482376
1.54273E-6	-43.504704
1.542775E-6	-43.460161
1.54282E-6	-43.453422
1.542865E-6	-43.423706
1.54291E-6	-43.42275
1.542955E-6	-43.428485
1.543E-6	-43.423706
1.543045E-6	-43.42275
1.54309E-6	-43.410352
1.543135E-6	-43.429441
1.54318E-6	-43.46884
1.543225E-6	-43.49304
1.54327E-6	-43.538905
1.543315E-6	-43.545777
1.54336E-6	-43.541849
1.543405E-6	-43.522259
1.54345E-6	-43.542831
1.543495E-6	-43.556599
1.54354E-6	-43.54676
1.543585E-6	-43.508599
1.54363E-6	-43.463052
1.543675E-6	-43.471737
1.54372E-6	-43.467875
1.543765E-6	-43.464016
1.54381E-6	-43.489159
1.543855E-6	-43.462088
1.5439E-6	-43.475603
1.543945E-6	-43.501785
1.54399E-6	-43.542831
1.544035E-6	-43.579314
1.54408E-6	-43.589227
1.544125E-6	-43.608124
1.54417E-6	-43.576344
1.544215E-6	-43.578324
1.54426E-6	-43.601153
1.544305E-6	-43.612113
1.54435E-6	-43.569423
1.544395E-6	-43.529106
1.54444E-6	-43.504704
1.544485E-6	-43.500813
1.54453E-6	-43.507625
1.544575E-6	-43.513473
1.54462E-6	-43.538905
1.544665E-6	-43.538905
1.54471E-6	-43.52617
1.544755E-6	-43.557584
1.5448E-6	-43.624102
1.544845E-6	-43.644157
1.54489E-6	-43.655227
1.544935E-6	-43.625103
1.54498E-6	-43.626103
1.545025E-6	-43.617105
1.54507E-6	-43.531064
1.545115E-6	-41.284271
1.54516E-6	-33.047811
1.545205E-6	-27.604503
1.54525E-6	-25.407583
1.545295E-6	-24.889192
1.54534E-6	-24.8096
1.545385E-6	-24.817493
1.54543E-6	-24.843911
1.545475E-6	-25.171264
1.54552E-6	-27.115272
1.545565E-6	-31.649439
1.54561E-6	-39.535048
1.545655E-6	-43.060094
1.5457E-6	-43.583276
1.545745E-6	-43.668346
1.54579E-6	-43.692671
1.545835E-6	-43.709984
1.54588E-6	-43.716111
1.545925E-6	-43.703866
1.54597E-6	-43.668346
1.546015E-6	-43.634118
1.54606E-6	-43.625103
1.546105E-6	-43.637127
1.54615E-6	-43.632113
1.546195E-6	-43.620102
1.54624E-6	-43.639135
1.546285E-6	-43.636124
1.54633E-6	-43.665315
1.546375E-6	-43.705904
1.54642E-6	-43.750994
1.546465E-6	-43.73557
1.54651E-6	-43.744818
1.546555E-6	-43.747905
1.5466E-6	-43.771645
1.546645E-6	-43.766473
1.54669E-6	-43.76544
1.546735E-6	-43.746875
1.54678E-6	-43.703866
1.546825E-6	-43.675427
1.54687E-6	-43.674415
1.546915E-6	-43.679478
1.54696E-6	-43.672391
1.547005E-6	-43.680492
1.54705E-6	-43.672391
1.547095E-6	-43.692671
1.54714E-6	-43.725317
1.547185E-6	-43.76544
1.54723E-6	-43.783045
1.547275E-6	-43.790316
1.54732E-6	-43.798639
1.547365E-6	-43.805936
1.54741E-6	-43.804893
1.547455E-6	-43.81429
1.5475E-6	-43.795516
1.547545E-6	-43.766473
1.54759E-6	-43.727366
1.547635E-6	-43.70081
1.54768E-6	-43.717133
1.547725E-6	-43.712025
1.54777E-6	-43.708963
1.547815E-6	-43.707943
1.54786E-6	-43.712025
1.547905E-6	-43.733517
1.54795E-6	-43.77268
1.547995E-6	-43.799681
1.54804E-6	-43.831046
1.548085E-6	-43.815335
1.54813E-6	-43.84576
1.548175E-6	-43.843655
1.54822E-6	-43.840499
1.548265E-6	-43.829997
1.54831E-6	-43.811155
1.548355E-6	-43.796557
1.5484E-6	-43.758211
1.548445E-6	-43.73557
1.54849E-6	-43.743789
1.548535E-6	-43.734543
1.54858E-6	-43.72839
1.548625E-6	-43.722246
1.54867E-6	-43.748934
1.548715E-6	-43.755116
1.54876E-6	-43.798639
1.548805E-6	-43.804893
1.54885E-6	-43.842603
1.548895E-6	-43.84576
1.54894E-6	-43.855246
1.548985E-6	-43.856302
1.54903E-6	-43.861582
1.549075E-6	-43.833145
1.54912E-6	-43.827899
1.549165E-6	-43.798639
1.54921E-6	-43.76544
1.549255E-6	-43.746875
1.5493E-6	-43.719177
1.549345E-6	-43.739678
1.54939E-6	-43.733517
1.549435E-6	-43.73557
1.54948E-6	-43.745846
1.549525E-6	-43.761307
1.54957E-6	-43.789276
1.549615E-6	-43.828948
1.54966E-6	-43.842603
1.549705E-6	-43.862639
1.54975E-6	-43.840499
1.549795E-6	-43.828948
1.54984E-6	-43.795516
1.549885E-6	-43.495953
1.54993E-6	-38.079904
1.549975E-6	-29.665762
1.55002E-6	-26.074789
1.550065E-6	-24.849213
1.55011E-6	-24.636941
1.550155E-6	-24.613006
1.5502E-6	-24.602968
1.550245E-6	-24.654662
1.55029E-6	-25.395532
1.550335E-6	-28.178708
1.55038E-6	-34.22853
1.550425E-6	-41.553986
1.55047E-6	-43.49984
1.550515E-6	-43.767507
1.55056E-6	-43.804893
1.550605E-6	-43.815335
1.55065E-6	-43.804893
1.550695E-6	-43.81429
1.55074E-6	-43.796557
1.550785E-6	-43.760275
1.55083E-6	-43.717133
1.550875E-6	-43.691655
1.55092E-6	-43.714067
1.550965E-6	-43.708963
1.55101E-6	-43.718155
1.551055E-6	-43.705904
1.5511E-6	-43.697756
1.551145E-6	-43.727366
1.55119E-6	-43.77268
1.551235E-6	-43.806979
1.55128E-6	-43.81429
1.551325E-6	-43.813245
1.55137E-6	-43.817427
1.551415E-6	-43.80385
1.55146E-6	-43.799681
1.551505E-6	-43.816381
1.55155E-6	-43.775787
1.551595E-6	-43.72327
1.55164E-6	-43.680492
1.551685E-6	-43.67644
1.55173E-6	-43.687592
1.551775E-6	-43.690639
1.55182E-6	-43.673403
1.551865E-6	-43.665315
1.55191E-6	-43.672391
1.551955E-6	-43.711004
1.552E-6	-43.76544
1.552045E-6	-43.790316
1.55209E-6	-43.790316
1.552135E-6	-43.787198
1.55218E-6	-43.778896
1.552225E-6	-43.790316
1.55227E-6	-43.794476
1.552315E-6	-43.787198
1.55236E-6	-43.745846
1.552405E-6	-43.678465
1.55245E-6	-43.65926
1.552495E-6	-43.652205
1.55254E-6	-43.675427
1.552585E-6	-43.667336
1.55263E-6	-43.656235
1.552675E-6	-43.652205
1.55272E-6	-43.675427
1.552765E-6	-43.706924
1.55281E-6	-43.758211
1.552855E-6	-43.778896
1.5529E-6	-43.775787
1.552945E-6	-43.769576
1.55299E-6	-43.758211
1.553035E-6	-43.783045
1.55308E-6	-43.77268
1.553125E-6	-43.768541
1.55317E-6	-43.707943
1.553215E-6	-43.668346
1.55326E-6	-43.642148
1.553305E-6	-43.650192
1.55335E-6	-43.655227
1.553395E-6	-43.64818
1.55344E-6	-43.626103
1.553485E-6	-43.625103
1.55353E-6	-43.650192
1.553575E-6	-43.708963
1.55362E-6	-43.741733
1.553665E-6	-43.760275
1.55371E-6	-43.756148
1.553755E-6	-43.750994
1.5538E-6	-43.76544
1.553845E-6	-43.766473
1.55389E-6	-43.77268
1.553935E-6	-43.734543
1.55398E-6	-43.702847
1.554025E-6	-43.643152
1.55407E-6	-43.642148
1.554115E-6	-43.641143
1.55416E-6	-43.643152
1.554205E-6	-43.616106
1.55425E-6	-43.612113
1.554295E-6	-43.625103
1.55434E-6	-43.653212
1.554385E-6	-43.712025
1.55443E-6	-43.73044
1.554475E-6	-43.752024
1.55452E-6	-43.752024
1.554565E-6	-43.761307
1.55461E-6	-43.774751
1.554655E-6	-43.785121
1.5547E-6	-43.757179
1.554745E-6	-43.724293
1.55479E-6	-43.677452
1.554835E-6	-43.645163
1.55488E-6	-43.635121
1.554925E-6	-43.630109
1.55497E-6	-43.622102
1.555015E-6	-43.607128
1.55506E-6	-43.616106
1.555105E-6	-43.624102
1.55515E-6	-43.64818
1.555195E-6	-43.695721
1.55524E-6	-43.72327
1.555285E-6	-43.733517
1.55533E-6	-43.745846
1.555375E-6	-43.759243
1.55542E-6	-43.758211
1.555465E-6	-43.747905
1.55551E-6	-43.736596
1.555555E-6	-43.717133
1.5556E-6	-43.674415
1.555645E-6	-43.642148
1.55569E-6	-43.620102
1.555735E-6	-43.624102
1.55578E-6	-43.616106
1.555825E-6	-43.597174
1.55587E-6	-43.615107
1.555915E-6	-43.626103
1.55596E-6	-43.64818
1.556005E-6	-43.686577
1.55605E-6	-43.724293
1.556095E-6	-43.733517
1.55614E-6	-43.750994
1.556185E-6	-43.759243
1.55623E-6	-43.764406
1.556275E-6	-43.746875
1.55632E-6	-43.734543
1.556365E-6	-43.715089
1.55641E-6	-43.678465
1.556455E-6	-43.641143
1.5565E-6	-43.610118
1.556545E-6	-43.593198
1.55659E-6	-43.602148
1.556635E-6	-43.610118
1.55668E-6	-43.616106
1.556725E-6	-43.621102
1.55677E-6	-43.636124
1.556815E-6	-43.686577
1.55686E-6	-43.7202
1.556905E-6	-43.761307
1.55695E-6	-43.76234
1.556995E-6	-43.764406
1.55704E-6	-43.761307
1.557085E-6	-43.752024
1.55713E-6	-43.736596
1.557175E-6	-43.731466
1.55722E-6	-43.686577
1.557265E-6	-43.647174
1.55731E-6	-43.625103
1.557355E-6	-43.615107
1.5574E-6	-43.617105
1.557445E-6	-43.623102
1.55749E-6	-43.619103
1.557535E-6	-43.632113
1.55758E-6	-43.651199
1.557625E-6	-43.70081
1.55767E-6	-43.740705
1.557715E-6	-43.778896
1.55776E-6	-43.783045
1.557805E-6	-43.783045
1.55785E-6	-43.769576
1.557895E-6	-43.767507
1.55794E-6	-43.763373
1.557985E-6	-43.756148
1.55803E-6	-43.696738
1.558075E-6	-43.656235
1.55812E-6	-43.638131
1.558165E-6	-43.643152
1.55821E-6	-43.651199
1.558255E-6	-43.649186
1.5583E-6	-43.661277
1.558345E-6	-43.664306
1.55839E-6	-43.67644
1.558435E-6	-43.73865
1.55848E-6	-43.801765
1.558525E-6	-43.815335
1.55857E-6	-43.818473
1.558615E-6	-43.801765
1.55866E-6	-43.796557
1.558705E-6	-43.801765
1.55875E-6	-43.820566
1.558795E-6	-43.797598
1.55884E-6	-43.748934
1.558885E-6	-43.691655
1.55893E-6	-43.681505
1.558975E-6	-43.695721
1.55902E-6	-43.702847
1.559065E-6	-43.712025
1.55911E-6	-43.70081
1.559155E-6	-43.703866
1.5592E-6	-43.740705
1.559245E-6	-43.796557
1.55929E-6	-43.843655
1.559335E-6	-43.876401
1.55938E-6	-43.876401
1.559425E-6	-43.864753
1.55947E-6	-43.87534
1.559515E-6	-43.878522
1.55956E-6	-43.887016
1.559605E-6	-43.855246
1.55965E-6	-43.811155
1.559695E-6	-43.766473
1.55974E-6	-43.76544
1.559785E-6	-43.760275
1.55983E-6	-43.773716
1.559875E-6	-43.773716
1.55992E-6	-43.76544
1.559965E-6	-43.769576
1.56001E-6	-43.806979
1.560055E-6	-43.864753
1.5601E-6	-43.924378
1.560145E-6	-43.923306
1.56019E-6	-43.923306
1.560235E-6	-43.930815
1.56028E-6	-43.931889
1.560325E-6	-43.949105
1.56037E-6	-43.95882
1.560415E-6	-43.923306
1.56046E-6	-43.867926
1.560505E-6	-43.831046
1.56055E-6	-43.824755
1.560595E-6	-43.835245
1.56064E-6	-43.835245
1.560685E-6	-43.829997
1.56073E-6	-43.829997
1.560775E-6	-43.837346
1.56082E-6	-43.871102
1.560865E-6	-43.936186
1.56091E-6	-43.972891
1.560955E-6	-43.984832
1.561E-6	-43.978314
1.561045E-6	-43.978314
1.56109E-6	-43.988095
1.561135E-6	-44.000078
1.56118E-6	-44.000078
1.561225E-6	-43.972891
1.56127E-6	-43.923306
1.561315E-6	-43.883829
1.56136E-6	-43.892334
1.561405E-6	-43.896593
1.56145E-6	-43.896593
1.561495E-6	-43.902989
1.56154E-6	-43.893398
1.561585E-6	-43.911532
1.56163E-6	-43.935111
1.561675E-6	-43.984832
1.56172E-6	-44.011001
1.561765E-6	-44.014283
1.56181E-6	-44.017568
1.561855E-6	-44.021952
1.5619E-6	-44.043936
1.561945E-6	-44.050553
1.56199E-6	-44.038429
1.562035E-6	-44.008814
1.56208E-6	-43.985919
1.562125E-6	-43.948027
1.56217E-6	-43.951262
1.562215E-6	-43.94695
1.56226E-6	-43.937261
1.562305E-6	-43.935111
1.56235E-6	-43.932963
1.562395E-6	-43.952341
1.56244E-6	-43.980486
1.562485E-6	-44.015378
1.56253E-6	-44.03953
1.562575E-6	-44.049449
1.56262E-6	-44.047243
1.562665E-6	-44.076012
1.56271E-6	-44.079343
1.562755E-6	-44.077122
1.5628E-6	-44.061603
1.562845E-6	-44.048346
1.56289E-6	-44.023048
1.562935E-6	-43.995717
1.56298E-6	-43.9794
1.563025E-6	-43.977229
1.56307E-6	-43.959901
1.563115E-6	-43.968556
1.56316E-6	-43.975059
1.563205E-6	-43.980486
1.56325E-6	-44.004444
1.563295E-6	-44.026339
1.56334E-6	-44.071573
1.563385E-6	-44.080454
1.56343E-6	-44.092696
