Wavelength (nm)	Power (dBm)
1.525E-6	-79.385475
1.525045E-6	-79.850597
1.52509E-6	-80.78886
1.525135E-6	-80.862391
1.52518E-6	-83.868985
1.525225E-6	-88.958544
1.52527E-6	-87.469044
1.525315E-6	-93.021606
1.52536E-6	-120
1.525405E-6	-91.478251
1.52545E-6	-87.456937
1.525495E-6	-83.470771
1.52554E-6	-81.18102
1.525585E-6	-79.295927
1.52563E-6	-78.347557
1.525675E-6	-78.814046
1.52572E-6	-78.077114
1.525765E-6	-78.057633
1.52581E-6	-77.969671
1.525855E-6	-78.250684
1.5259E-6	-79.150664
1.525945E-6	-81.934131
1.52599E-6	-87.044329
1.526035E-6	-88.392314
1.52608E-6	-91.107543
1.526125E-6	-92.08871
1.52617E-6	-87.56962
1.526215E-6	-92.439728
1.52626E-6	-84.335625
1.526305E-6	-81.02868
1.52635E-6	-78.323873
1.526395E-6	-77.490923
1.52644E-6	-77.10411
1.526485E-6	-76.96372
1.52653E-6	-77.035542
1.526575E-6	-77.139929
1.52662E-6	-76.813107
1.526665E-6	-78.250684
1.52671E-6	-79.710223
1.526755E-6	-83.120254
1.5268E-6	-87.75208
1.526845E-6	-87.708303
1.52689E-6	-89.003194
1.526935E-6	-88.422411
1.52698E-6	-90.121997
1.527025E-6	-84.218194
1.52707E-6	-80.861332
1.527115E-6	-77.428016
1.52716E-6	-75.929492
1.527205E-6	-75.654311
1.52725E-6	-75.979106
1.527295E-6	-75.469876
1.52734E-6	-75.598784
1.527385E-6	-75.635193
1.52743E-6	-76.677636
1.527475E-6	-79.079815
1.52752E-6	-82.285595
1.527565E-6	-86.430186
1.52761E-6	-89.574245
1.527655E-6	-91.752886
1.5277E-6	-90.121997
1.527745E-6	-85.955084
1.52779E-6	-86.637404
1.527835E-6	-81.44602
1.52788E-6	-77.07301
1.527925E-6	-75.409092
1.52797E-6	-75.234582
1.528015E-6	-75.142786
1.52806E-6	-74.740487
1.528105E-6	-74.393761
1.52815E-6	-74.766438
1.528195E-6	-75.263671
1.52824E-6	-76.880343
1.528285E-6	-79.738755
1.52833E-6	-83.592205
1.528375E-6	-90.559123
1.52842E-6	-90.842309
1.528465E-6	-91.444203
1.52851E-6	-90.323116
1.528555E-6	-88.604357
1.5286E-6	-82.556288
1.528645E-6	-77.176045
1.52869E-6	-75.149888
1.528735E-6	-74.478187
1.52878E-6	-74.316809
1.528825E-6	-74.031831
1.52887E-6	-73.894463
1.528915E-6	-73.883829
1.52896E-6	-74.120647
1.529005E-6	-75.359578
1.52905E-6	-78.709549
1.529095E-6	-82.998157
1.52914E-6	-86.449318
1.529185E-6	-88.144578
1.52923E-6	-88.043771
1.529275E-6	-87.647241
1.52932E-6	-89.833845
1.529365E-6	-83.981572
1.52941E-6	-78.401322
1.529455E-6	-74.997635
1.5295E-6	-74.031831
1.529545E-6	-73.616106
1.52959E-6	-73.59618
1.529635E-6	-73.445734
1.52968E-6	-73.396089
1.529725E-6	-73.535963
1.52977E-6	-74.353339
1.529815E-6	-76.663512
1.52986E-6	-79.75104
1.529905E-6	-85.355105
1.52995E-6	-91.79142
1.529995E-6	-88.989406
1.53004E-6	-89.430951
1.530085E-6	-86.38461
1.53013E-6	-88.155925
1.530175E-6	-79.875846
1.53022E-6	-74.824083
1.530265E-6	-73.556599
1.53031E-6	-73.148855
1.530355E-6	-72.873503
1.5304E-6	-72.977418
1.530445E-6	-73.243133
1.53049E-6	-72.908997
1.530535E-6	-73.533023
1.53058E-6	-75.359578
1.530625E-6	-79.442395
1.53067E-6	-83.139002
1.530715E-6	-88.501653
1.53076E-6	-89.948195
1.530805E-6	-92.145278
1.53085E-6	-90.500248
1.530895E-6	-86.804776
1.53094E-6	-81.771131
1.530985E-6	-76.07303
1.53103E-6	-73.513473
1.531075E-6	-72.962788
1.53112E-6	-72.836627
1.531165E-6	-72.771194
1.53121E-6	-72.918341
1.531255E-6	-72.911544
1.5313E-6	-73.052194
1.531345E-6	-74.683934
1.53139E-6	-77.337683
1.531435E-6	-82.999889
1.53148E-6	-85.662302
1.531525E-6	-90.988142
1.53157E-6	-88.389316
1.531615E-6	-88.350526
1.53166E-6	-93.743789
1.531705E-6	-83.91474
1.53175E-6	-77.205612
1.531795E-6	-74.30509
1.53184E-6	-73.011169
1.531885E-6	-73.025963
1.53193E-6	-72.94564
1.531975E-6	-72.840802
1.53202E-6	-72.998157
1.532065E-6	-72.951634
1.53211E-6	-73.712025
1.532155E-6	-76.151092
1.5322E-6	-79.172146
1.532245E-6	-85.05289
1.53229E-6	-87.825161
1.532335E-6	-87.537477
1.53238E-6	-87.56962
1.532425E-6	-89.438577
1.53247E-6	-88.016179
1.532515E-6	-80.319843
1.53256E-6	-75.326879
1.532605E-6	-73.357342
1.53265E-6	-73.029451
1.532695E-6	-73.110465
1.53274E-6	-72.872661
1.532785E-6	-73.266104
1.53283E-6	-73.370534
1.532875E-6	-73.707943
1.53292E-6	-75.349147
1.532965E-6	-79.104481
1.53301E-6	-82.16025
1.533055E-6	-89.438577
1.5331E-6	-89.742846
1.533145E-6	-89.880069
1.53319E-6	-96.160052
1.533235E-6	-89.718356
1.53328E-6	-82.894596
1.533325E-6	-77.013652
1.53337E-6	-74.409317
1.533415E-6	-73.582285
1.53346E-6	-73.423706
1.533505E-6	-73.64818
1.53355E-6	-73.7202
1.533595E-6	-73.721223
1.53364E-6	-73.910463
1.533685E-6	-75.149888
1.53373E-6	-77.274622
1.533775E-6	-81.362015
1.53382E-6	-84.134127
1.533865E-6	-88.632794
1.53391E-6	-94.641997
1.533955E-6	-89.800533
1.534E-6	-87.827793
1.534045E-6	-85.980827
1.53409E-6	-80.411018
1.534135E-6	-76.03452
1.53418E-6	-74.569258
1.534225E-6	-74.17823
1.53427E-6	-74.026339
1.534315E-6	-74.356891
1.53436E-6	-74.374692
1.534405E-6	-74.378261
1.53445E-6	-74.735315
1.534495E-6	-76.736641
1.53454E-6	-79.393022
1.534585E-6	-84.609239
1.53463E-6	-89.179331
1.534675E-6	-89.484616
1.53472E-6	-89.649707
1.534765E-6	-93.690639
1.53481E-6	-90.589858
1.534855E-6	-82.849163
1.5349E-6	-78.495506
1.534945E-6	-75.547072
1.53499E-6	-75.079384
1.535035E-6	-74.949858
1.53508E-6	-75.398542
1.535125E-6	-75.00863
1.53517E-6	-74.842586
1.535215E-6	-75.398542
1.53526E-6	-76.08712
1.535305E-6	-79.299621
1.53535E-6	-82.664015
1.535395E-6	-89.905491
1.53544E-6	-89.430951
1.535485E-6	-90.466269
1.53553E-6	-87.883456
1.535575E-6	-90.170959
1.53562E-6	-85.057062
1.535665E-6	-81.277272
1.53571E-6	-77.13319
1.535755E-6	-75.915904
1.5358E-6	-75.54863
1.535845E-6	-75.536182
1.53589E-6	-75.471407
1.535935E-6	-75.67191
1.53598E-6	-75.84359
1.536025E-6	-76.34512
1.53607E-6	-78.607508
1.536115E-6	-80.622816
1.53616E-6	-85.297366
1.536205E-6	-87.377863
1.53625E-6	-87.217038
1.536295E-6	-87.144427
1.53634E-6	-120
1.536385E-6	-90.825995
1.53643E-6	-83.174037
1.536475E-6	-79.129288
1.53652E-6	-76.819367
1.536565E-6	-76.320853
1.53661E-6	-76.051982
1.536655E-6	-76.078309
1.5367E-6	-76.232406
1.536745E-6	-76.478175
1.53679E-6	-76.5738
1.536835E-6	-77.517814
1.53688E-6	-79.566377
1.536925E-6	-83.890206
1.53697E-6	-90.433994
1.537015E-6	-92.38448
1.53706E-6	-87.862167
1.537105E-6	-95.468346
1.53715E-6	-96.985359
1.537195E-6	-85.536182
1.53724E-6	-81.505192
1.537285E-6	-78.365404
1.53733E-6	-76.611453
1.537375E-6	-76.328305
1.53742E-6	-76.585655
1.537465E-6	-76.607474
1.53751E-6	-76.792308
1.537555E-6	-76.712128
1.5376E-6	-77.302536
1.537645E-6	-79.062282
1.53769E-6	-81.098026
1.537735E-6	-86.022337
1.53778E-6	-87.117508
1.537825E-6	-91.750285
1.53787E-6	-89.333014
1.537915E-6	-87.710866
1.53796E-6	-86.322715
1.538005E-6	-85.644741
1.53805E-6	-79.93962
1.538095E-6	-76.546263
1.53814E-6	-76.311555
1.538185E-6	-76.35449
1.53823E-6	-76.806857
1.538275E-6	-76.615435
1.53832E-6	-76.470461
1.538365E-6	-76.90157
1.53841E-6	-77.966951
1.538455E-6	-79.609827
1.5385E-6	-85.011383
1.538545E-6	-84.092696
1.53859E-6	-88.820662
1.538635E-6	-88.975663
1.53868E-6	-89.446217
1.538725E-6	-86.524748
1.53877E-6	-86.800616
1.538815E-6	-82.805858
1.53886E-6	-78.843895
1.538905E-6	-77.363639
1.53895E-6	-76.208759
1.538995E-6	-76.333903
1.53904E-6	-76.950788
1.539085E-6	-76.437829
1.53913E-6	-76.40544
1.539175E-6	-77.064165
1.53922E-6	-78.507809
1.539265E-6	-80.849169
1.53931E-6	-86.34512
1.539355E-6	-94.384216
1.5394E-6	-90.118425
1.539445E-6	-87.539941
1.53949E-6	-91.52119
1.539535E-6	-89.888526
1.53958E-6	-84.153296
1.539625E-6	-80.334359
1.53967E-6	-77.086311
1.539715E-6	-76.265363
1.53976E-6	-76.236056
1.539805E-6	-76.441655
1.53985E-6	-76.577748
1.539895E-6	-76.865546
1.53994E-6	-76.653452
1.539985E-6	-77.503126
1.54003E-6	-79.523358
1.540075E-6	-83.126494
1.54012E-6	-86.518899
1.540165E-6	-89.884296
1.54021E-6	-87.614521
1.540255E-6	-88.065971
1.5403E-6	-89.97402
1.540345E-6	-86.579723
1.54039E-6	-83.075938
1.540435E-6	-79.211808
1.54048E-6	-76.226937
1.540525E-6	-76.3865
1.54057E-6	-76.085356
1.540615E-6	-76.236056
1.54066E-6	-76.294869
1.540705E-6	-76.237881
1.54075E-6	-76.657474
1.540795E-6	-77.78325
1.54084E-6	-80.14888
1.540885E-6	-87.370745
1.54093E-6	-88.774565
1.540975E-6	-97.130946
1.54102E-6	-93.174939
1.541065E-6	-89.582127
1.54111E-6	-92.931116
1.541155E-6	-88.794261
1.5412E-6	-80.186798
1.541245E-6	-77.481185
1.54129E-6	-76.029295
1.541335E-6	-75.850267
1.54138E-6	-75.936302
1.541425E-6	-75.728386
1.54147E-6	-75.702477
1.541515E-6	-75.932895
1.54156E-6	-76.677636
1.541605E-6	-79.480761
1.54165E-6	-82.153827
1.541695E-6	-87.703182
1.54174E-6	-88.467951
1.541785E-6	-88.06041
1.54183E-6	-92.068385
1.541875E-6	-87.295541
1.54192E-6	-93.084765
1.541965E-6	-83.512498
1.54201E-6	-78.837244
1.542055E-6	-76.346993
1.5421E-6	-75.651119
1.542145E-6	-75.846927
1.54219E-6	-75.691191
1.542235E-6	-75.472938
1.54228E-6	-75.553308
1.542325E-6	-75.663902
1.54237E-6	-76.627405
1.542415E-6	-79.325572
1.54246E-6	-82.757241
1.542505E-6	-87.437635
1.54255E-6	-88.265224
1.542595E-6	-89.808837
1.54264E-6	-91.802587
1.542685E-6	-88.712777
1.54273E-6	-86.852903
1.542775E-6	-80.619308
1.54282E-6	-76.914356
1.542865E-6	-76.163641
1.54291E-6	-75.77082
1.542955E-6	-75.344684
1.543E-6	-75.52842
1.543045E-6	-76.907958
1.54309E-6	-75.431787
1.543135E-6	-75.676722
1.54318E-6	-77.956087
1.543225E-6	-80.179098
1.54327E-6	-84.316809
1.543315E-6	-84.115042
1.54336E-6	-120
1.543405E-6	-90.634863
1.54345E-6	-90.234208
1.543495E-6	-92.922595
1.54354E-6	-84.907975
1.543585E-6	-79.270153
1.54363E-6	-76.165437
1.543675E-6	-75.474469
1.54372E-6	-75.503673
1.543765E-6	-75.182708
1.54381E-6	-75.431787
1.543855E-6	-75.176982
1.5439E-6	-75.188441
1.543945E-6	-75.939711
1.54399E-6	-78.178708
1.544035E-6	-82.131776
1.54408E-6	-88.079904
1.544125E-6	-87.950665
1.54417E-6	-88.840568
1.544215E-6	-94.859838
1.54426E-6	-90.480314
1.544305E-6	-87.996968
1.54435E-6	-82.281921
1.544395E-6	-77.295541
1.54444E-6	-75.808707
1.544485E-6	-75.477534
1.54453E-6	-75.152732
1.544575E-6	-75.055671
1.54462E-6	-75.127202
1.544665E-6	-75.158426
1.54471E-6	-75.204247
1.544755E-6	-76.617428
1.5448E-6	-79.129288
1.544845E-6	-83.046059
1.54489E-6	-88.158766
1.544935E-6	-93.460161
1.54498E-6	-85.984272
1.545025E-6	-83.182162
1.54507E-6	-75.777385
1.545115E-6	-63.230322
1.54516E-6	-49.34047
1.545205E-6	-42.874345
1.54525E-6	-40.729378
1.545295E-6	-40.244763
1.54534E-6	-40.180456
1.545385E-6	-40.140349
1.54543E-6	-40.166444
1.545475E-6	-40.588365
1.54552E-6	-42.559418
1.545565E-6	-47.765041
1.54561E-6	-57.009287
1.545655E-6	-65.88212
1.5457E-6	-72.967086
1.545745E-6	-78.557372
1.54579E-6	-82.992098
1.545835E-6	-85.471407
1.54588E-6	-84.714689
1.545925E-6	-83.769576
1.54597E-6	-79.93962
1.546015E-6	-76.250684
1.54606E-6	-75.848596
1.546105E-6	-74.9026
1.54615E-6	-75.15131
1.546195E-6	-74.930893
1.54624E-6	-75.043169
1.546285E-6	-75.215778
1.54633E-6	-75.965363
1.546375E-6	-78.948306
1.54642E-6	-80.860273
1.546465E-6	-89.578184
1.54651E-6	-84.46967
1.546555E-6	-90.857627
1.5466E-6	-84.408118
1.546645E-6	-80.065197
1.54669E-6	-70.929113
1.546735E-6	-54.316809
1.54678E-6	-44.705696
1.546825E-6	-41.398417
1.54687E-6	-40.301649
1.546915E-6	-40.138555
1.54696E-6	-40.125125
1.547005E-6	-40.085967
1.54705E-6	-40.21135
1.547095E-6	-41.379283
1.54714E-6	-44.94172
1.547185E-6	-52.165252
1.54723E-6	-61.310031
1.547275E-6	-69.746941
1.54732E-6	-76.957249
1.547365E-6	-80.646943
1.54741E-6	-84.22853
1.547455E-6	-84.246967
1.5475E-6	-86.507225
1.547545E-6	-80.965302
1.54759E-6	-77.33298
1.547635E-6	-75.790546
1.54768E-6	-74.930893
1.547725E-6	-75.079384
1.54777E-6	-75.285616
1.547815E-6	-74.993519
1.54786E-6	-75.243288
1.547905E-6	-75.502132
1.54795E-6	-76.671577
1.547995E-6	-79.535048
1.54804E-6	-82.541448
1.548085E-6	-85.468346
1.54813E-6	-89.41574
1.548175E-6	-86.439741
1.54822E-6	-82.06489
1.548265E-6	-75.058454
1.54831E-6	-61.420045
1.548355E-6	-48.428456
1.5484E-6	-42.446588
1.548445E-6	-40.492458
1.54849E-6	-40.089069
1.548535E-6	-40.035321
1.54858E-6	-40.023515
1.548625E-6	-40.035321
1.54867E-6	-40.490513
1.548715E-6	-42.680086
1.54876E-6	-48.071539
1.548805E-6	-57.801536
1.54885E-6	-66.378947
1.548895E-6	-73.478504
1.54894E-6	-79.519468
1.548985E-6	-82.306965
1.54903E-6	-86.38461
1.549075E-6	-83.805936
1.54912E-6	-84.234283
1.549165E-6	-79.259153
1.54921E-6	-75.749551
1.549255E-6	-75.457651
1.5493E-6	-74.979828
1.549345E-6	-75.125788
1.54939E-6	-75.179844
1.549435E-6	-75.033471
1.54948E-6	-74.90663
1.549525E-6	-75.67191
1.54957E-6	-77.664962
1.549615E-6	-80.557148
1.54966E-6	-85.262212
1.549705E-6	-88.150248
1.54975E-6	-89.229957
1.549795E-6	-84.890531
1.54984E-6	-80.691019
1.549885E-6	-71.633595
1.54993E-6	-54.989407
1.549975E-6	-44.87983
1.55002E-6	-41.31826
1.550065E-6	-40.181361
1.55011E-6	-39.986991
1.550155E-6	-39.961088
1.5502E-6	-39.961088
1.550245E-6	-40.020024
1.55029E-6	-40.834408
1.550335E-6	-43.855246
1.55038E-6	-50.317039
1.550425E-6	-61.899692
1.55047E-6	-69.129288
1.550515E-6	-75.611413
1.55056E-6	-80.438316
1.550605E-6	-83.78616
1.55065E-6	-85.963648
1.550695E-6	-87.10634
1.55074E-6	-82.405588
1.550785E-6	-77.321246
1.55083E-6	-75.281218
1.550875E-6	-75.003129
1.55092E-6	-74.577972
1.550965E-6	-74.890531
1.55101E-6	-74.983931
1.551055E-6	-74.713404
1.5511E-6	-75.295895
1.551145E-6	-76.422557
1.55119E-6	-79.20457
1.551235E-6	-82.628074
1.55128E-6	-92.136746
1.551325E-6	-88.632794
1.55137E-6	-88.368386
1.551415E-6	-120
1.55146E-6	-88.639139
1.551505E-6	-86.333903
1.55155E-6	-81.517493
1.551595E-6	-76.746896
1.55164E-6	-75.132862
1.551685E-6	-75.034855
1.55173E-6	-74.89321
1.551775E-6	-74.789927
1.55182E-6	-74.76774
1.551865E-6	-74.70698
1.55191E-6	-75.189876
1.551955E-6	-76.317131
1.552E-6	-79.318141
1.552045E-6	-83.928668
1.55209E-6	-95.178413
1.552135E-6	-88.368386
1.55218E-6	-87.370745
1.552225E-6	-93.427529
1.55227E-6	-90.184532
1.552315E-6	-87.203331
1.55236E-6	-80.070932
1.552405E-6	-76.382722
1.55245E-6	-75.069604
1.552495E-6	-74.713404
1.55254E-6	-75.055671
1.552585E-6	-74.664821
1.55263E-6	-74.871822
1.552675E-6	-74.521023
1.55272E-6	-75.329842
1.552765E-6	-76.571827
1.55281E-6	-79.400581
1.552855E-6	-83.480439
1.5529E-6	-88.082696
1.552945E-6	-91.853529
1.55299E-6	-93.165927
1.553035E-6	-89.362914
1.55308E-6	-89.211808
1.553125E-6	-84.360445
1.55317E-6	-79.484616
1.553215E-6	-75.840256
1.55326E-6	-74.845236
1.553305E-6	-74.72499
1.55335E-6	-74.332091
1.553395E-6	-74.757337
1.55344E-6	-74.6572
1.553485E-6	-74.604221
1.55353E-6	-74.933597
1.553575E-6	-76.742791
1.55362E-6	-80.01392
1.553665E-6	-84.72499
1.55371E-6	-88.843895
1.553755E-6	-92.672847
1.5538E-6	-88.784402
1.553845E-6	-88.207355
1.55389E-6	-86.099485
1.553935E-6	-84.985299
1.55398E-6	-78.703101
1.554025E-6	-75.73977
1.55407E-6	-74.678829
1.554115E-6	-74.48672
1.55416E-6	-74.48428
1.554205E-6	-75.564241
1.55425E-6	-74.347427
1.554295E-6	-74.778167
1.55434E-6	-75.131446
1.554385E-6	-77.500682
1.55443E-6	-79.566377
1.554475E-6	-85.56737
1.55452E-6	-87.6675
1.554565E-6	-93.073293
1.55461E-6	-86.013657
1.554655E-6	-89.566377
1.5547E-6	-89.381707
1.554745E-6	-84.600462
1.55479E-6	-78.495506
1.554835E-6	-75.394028
1.55488E-6	-74.662279
1.554925E-6	-74.55312
1.55497E-6	-74.410516
1.555015E-6	-74.387793
1.55506E-6	-74.529641
1.555105E-6	-74.458744
1.55515E-6	-75.189876
1.555195E-6	-78.181564
1.55524E-6	-80.440718
1.555285E-6	-85.318004
1.55533E-6	-87.910215
1.555375E-6	-90.772745
1.55542E-6	-88.588639
1.555465E-6	-101.796015
1.55551E-6	-93.355461
1.555555E-6	-82.939653
1.5556E-6	-78.164455
1.555645E-6	-75.597208
1.55569E-6	-74.394956
1.555735E-6	-74.24235
1.55578E-6	-74.393761
1.555825E-6	-74.243504
1.55587E-6	-74.170281
1.555915E-6	-74.478187
1.55596E-6	-75.185574
1.556005E-6	-77.75726
1.55605E-6	-80.744301
1.556095E-6	-86.106567
1.55614E-6	-89.139963
1.556185E-6	-86.955095
1.55623E-6	-88.410347
1.556275E-6	-90.465786
1.55632E-6	-87.986029
1.556365E-6	-82.865095
1.55641E-6	-76.981023
1.556455E-6	-75.388017
1.5565E-6	-74.392567
1.556545E-6	-74.213608
1.55659E-6	-74.251588
1.556635E-6	-74.364003
1.55668E-6	-74.371126
1.556725E-6	-74.397346
1.55677E-6	-75.234582
1.556815E-6	-77.770236
1.55686E-6	-80.380571
1.556905E-6	-85.948245
1.55695E-6	-120
1.556995E-6	-98.560489
1.55704E-6	-88.244882
1.557085E-6	-87.300203
1.55713E-6	-88.507809
1.557175E-6	-81.89902
1.55722E-6	-76.931463
1.557265E-6	-75.171264
1.55731E-6	-74.317983
1.557355E-6	-74.432152
1.5574E-6	-74.045038
1.557445E-6	-74.353339
1.55749E-6	-74.546929
1.557535E-6	-74.62055
1.55758E-6	-75.115903
1.557625E-6	-78.013429
1.55767E-6	-80.94906
1.557715E-6	-85.633604
1.55776E-6	-85.89729
1.557805E-6	-92.494145
1.55785E-6	-89.168559
1.557895E-6	-88.428456
1.55794E-6	-88.201611
1.557985E-6	-83.326405
1.55803E-6	-77.119745
1.558075E-6	-75.290018
1.55812E-6	-74.489161
1.558165E-6	-74.339162
1.55821E-6	-74.356891
1.558255E-6	-74.32856
1.5583E-6	-74.496493
1.558345E-6	-74.699284
1.55839E-6	-75.290018
1.558435E-6	-77.964232
1.55848E-6	-81.750285
1.558525E-6	-91.306509
1.55857E-6	-88.016179
1.558615E-6	-89.229957
1.55866E-6	-90.247521
1.558705E-6	-86.305986
1.55875E-6	-90.798767
1.558795E-6	-82.516569
1.55884E-6	-78.029953
1.558885E-6	-75.275361
1.55893E-6	-74.70313
1.558975E-6	-74.571746
1.55902E-6	-74.372315
1.559065E-6	-74.508741
1.55911E-6	-74.404524
1.559155E-6	-74.717262
1.5592E-6	-75.108856
1.559245E-6	-77.46662
1.55929E-6	-81.433919
1.559335E-6	-86.651443
1.55938E-6	-90.971272
1.559425E-6	-86.621416
1.55947E-6	-88.607508
1.559515E-6	-93.662287
1.55956E-6	-86.272721
1.559605E-6	-84.464811
1.55965E-6	-77.223908
1.559695E-6	-75.485206
1.55974E-6	-75.019653
1.559785E-6	-74.565528
1.55983E-6	-74.763836
1.559875E-6	-74.618034
1.55992E-6	-75.077985
1.559965E-6	-75.128616
1.56001E-6	-75.880438
1.560055E-6	-77.698066
1.5601E-6	-81.594548
1.560145E-6	-120
1.56019E-6	-88.127614
1.560235E-6	-86.623411
1.56028E-6	-81.743792
1.560325E-6	-89.034376
1.56037E-6	-89.086848
1.560415E-6	-83.155137
1.56046E-6	-78.262312
1.560505E-6	-75.421181
1.56055E-6	-75.269512
1.560595E-6	-75.199931
1.56064E-6	-74.881166
1.560685E-6	-74.851867
1.56073E-6	-75.210009
1.560775E-6	-75.290018
1.56082E-6	-75.895602
1.560865E-6	-78.548036
1.56091E-6	-81.7993
1.560955E-6	-85.898979
1.561E-6	-87.401673
1.561045E-6	-90.531549
1.56109E-6	-120
1.561135E-6	-92.423763
1.56118E-6	-91.692189
1.561225E-6	-84.009908
1.56127E-6	-78.890738
1.561315E-6	-76.219657
1.56136E-6	-75.699249
1.561405E-6	-75.231684
1.56145E-6	-75.43634
1.561495E-6	-75.224447
1.56154E-6	-75.462231
1.561585E-6	-75.805399
1.56163E-6	-76.247023
1.561675E-6	-78.535619
1.56172E-6	-81.001795
1.561765E-6	-86.117211
1.56181E-6	-88.968807
1.561855E-6	-95.977386
1.5619E-6	-90.827046
1.561945E-6	-88.897471
1.56199E-6	-89.325572
1.562035E-6	-84.723701
1.56208E-6	-80.120657
1.562125E-6	-76.637404
1.56217E-6	-75.968795
1.562215E-6	-75.807053
1.56226E-6	-75.968795
1.562305E-6	-75.968795
1.56235E-6	-75.84359
1.562395E-6	-75.760991
1.56244E-6	-76.597542
1.562485E-6	-78.941493
1.56253E-6	-80.910863
1.562575E-6	-85.564241
1.56262E-6	-87.801536
1.562665E-6	-92.114781
1.56271E-6	-88.175853
1.562755E-6	-91.730187
1.5628E-6	-90.473044
1.562845E-6	-83.842603
1.56289E-6	-80.132283
1.562935E-6	-77.695511
1.56298E-6	-76.483969
1.563025E-6	-76.413039
1.56307E-6	-76.097716
1.563115E-6	-76.285627
1.56316E-6	-76.217839
1.563205E-6	-76.333903
1.56325E-6	-77.230789
1.563295E-6	-79.574245
1.56334E-6	-81.017137
1.563385E-6	-84.464811
1.56343E-6	-90.495378
1.563475E-6	-104.03293
1.56352E-6	-91.796672
