Wavelength (nm)	Power (dBm)
1.525E-6	-50.195421
1.525045E-6	-50.030945
1.52509E-6	-49.931063
1.525135E-6	-49.913998
1.52518E-6	-49.880069
1.525225E-6	-49.788107
1.52527E-6	-49.653715
1.525315E-6	-49.527251
1.52536E-6	-49.404366
1.525405E-6	-49.28118
1.52545E-6	-49.136402
1.525495E-6	-48.904215
1.52554E-6	-48.626459
1.525585E-6	-48.380334
1.52563E-6	-48.213108
1.525675E-6	-48.091083
1.52572E-6	-47.953375
1.525765E-6	-47.804155
1.52581E-6	-47.690404
1.525855E-6	-47.642191
1.5259E-6	-47.71343
1.525945E-6	-47.817271
1.52599E-6	-47.817271
1.526035E-6	-47.74174
1.52608E-6	-47.649768
1.526125E-6	-47.564659
1.52617E-6	-47.476325
1.526215E-6	-47.337683
1.52626E-6	-47.119745
1.526305E-6	-46.777807
1.52635E-6	-46.468535
1.526395E-6	-46.29672
1.52644E-6	-46.178028
1.526485E-6	-46.044989
1.52653E-6	-45.972229
1.526575E-6	-45.890541
1.52662E-6	-45.825283
1.526665E-6	-45.963648
1.52671E-6	-46.161846
1.526755E-6	-46.237881
1.5268E-6	-46.199698
1.526845E-6	-46.083593
1.52689E-6	-46.080069
1.526935E-6	-46.003263
1.52698E-6	-45.845258
1.527025E-6	-45.696024
1.52707E-6	-45.292956
1.527115E-6	-44.914703
1.52716E-6	-44.727569
1.527205E-6	-44.597957
1.52725E-6	-44.501388
1.527295E-6	-44.463597
1.52734E-6	-44.396151
1.527385E-6	-44.384216
1.52743E-6	-44.541982
1.527475E-6	-44.85054
1.52752E-6	-45.082182
1.527565E-6	-45.103227
1.52761E-6	-45.061239
1.527655E-6	-45.0515
1.5277E-6	-44.986668
1.527745E-6	-44.94172
1.52779E-6	-44.754741
1.527835E-6	-44.417716
1.52788E-6	-43.975059
1.527925E-6	-43.644157
1.52797E-6	-43.559555
1.528015E-6	-43.537924
1.52806E-6	-43.491099
1.528105E-6	-43.462088
1.52815E-6	-43.451499
1.528195E-6	-43.59618
1.52824E-6	-43.987007
1.528285E-6	-44.438182
1.52833E-6	-44.554359
1.528375E-6	-44.561802
1.52842E-6	-44.592952
1.528465E-6	-44.524714
1.52851E-6	-44.539511
1.528555E-6	-44.463597
1.5286E-6	-44.125135
1.528645E-6	-43.557584
1.52869E-6	-43.263341
1.528735E-6	-43.097153
1.52878E-6	-43.102473
1.528825E-6	-43.080349
1.52887E-6	-43.067128
1.528915E-6	-43.109577
1.52896E-6	-43.193926
1.529005E-6	-43.584267
1.52905E-6	-44.163479
1.529095E-6	-44.497716
1.52914E-6	-44.540747
1.529185E-6	-44.534573
1.52923E-6	-44.556839
1.529275E-6	-44.550642
1.52932E-6	-44.541982
1.529365E-6	-44.266642
1.52941E-6	-43.722246
1.529455E-6	-43.294758
1.5295E-6	-43.006827
1.529545E-6	-43.032942
1.52959E-6	-43.029451
1.529635E-6	-43.035562
1.52968E-6	-42.991233
1.529725E-6	-43.117582
1.52977E-6	-43.470771
1.529815E-6	-44.086014
1.52986E-6	-44.565528
1.529905E-6	-44.661009
1.52995E-6	-44.713404
1.529995E-6	-44.721124
1.53004E-6	-44.66991
1.530085E-6	-44.748256
1.53013E-6	-44.604221
1.530175E-6	-44.014283
1.53022E-6	-43.484313
1.530265E-6	-43.158731
1.53031E-6	-43.104248
1.530355E-6	-43.104248
1.5304E-6	-43.111354
1.530445E-6	-43.108688
1.53049E-6	-43.162327
1.530535E-6	-43.355461
1.53058E-6	-43.982659
1.530625E-6	-44.621809
1.53067E-6	-44.816177
1.530715E-6	-44.851867
1.53076E-6	-44.863829
1.530805E-6	-44.881166
1.53085E-6	-44.921441
1.530895E-6	-44.778167
1.53094E-6	-44.383025
1.530985E-6	-43.767507
1.53103E-6	-43.274404
1.531075E-6	-43.18397
1.53112E-6	-43.157832
1.531165E-6	-43.193926
1.53121E-6	-43.156934
1.531255E-6	-43.170431
1.5313E-6	-43.328273
1.531345E-6	-43.821613
1.53139E-6	-44.517335
1.531435E-6	-44.9026
1.53148E-6	-44.937656
1.531525E-6	-44.982563
1.53157E-6	-45.019653
1.531615E-6	-44.996263
1.53166E-6	-44.945787
1.531705E-6	-44.667365
1.53175E-6	-44.037329
1.531795E-6	-43.479472
1.53184E-6	-43.268869
1.531885E-6	-43.25966
1.53193E-6	-43.230322
1.531975E-6	-43.269791
1.53202E-6	-43.306831
1.532065E-6	-43.287346
1.53211E-6	-43.688607
1.532155E-6	-44.308603
1.5322E-6	-44.832003
1.532245E-6	-44.971634
1.53229E-6	-45.043169
1.532335E-6	-45.072396
1.53238E-6	-45.034855
1.532425E-6	-45.03901
1.53247E-6	-44.90932
1.532515E-6	-44.394956
1.53256E-6	-43.768541
1.532605E-6	-43.405592
1.53265E-6	-43.309622
1.532695E-6	-43.342314
1.53274E-6	-43.34044
1.532785E-6	-43.350761
1.53283E-6	-43.35452
1.532875E-6	-43.568435
1.53292E-6	-44.153296
1.532965E-6	-44.757337
1.53301E-6	-44.968906
1.533055E-6	-45.026556
1.5331E-6	-45.072396
1.533145E-6	-45.084982
1.53319E-6	-45.090588
1.533235E-6	-45.05428
1.53328E-6	-44.719837
1.533325E-6	-44.119525
1.53337E-6	-43.660268
1.533415E-6	-43.536943
1.53346E-6	-43.498868
1.533505E-6	-43.500813
1.53355E-6	-43.496925
1.533595E-6	-43.536943
1.53364E-6	-43.655227
1.533685E-6	-43.996807
1.53373E-6	-44.521023
1.533775E-6	-44.958011
1.53382E-6	-45.058454
1.533865E-6	-45.115903
1.53391E-6	-45.101821
1.533955E-6	-45.061239
1.534E-6	-45.068209
1.534045E-6	-44.929541
1.53409E-6	-44.489161
1.534135E-6	-44.023048
1.53418E-6	-43.77061
1.534225E-6	-43.726341
1.53427E-6	-43.718155
1.534315E-6	-43.737623
1.53436E-6	-43.764406
1.534405E-6	-43.778896
1.53445E-6	-43.960982
1.534495E-6	-44.423725
1.53454E-6	-44.851867
1.534585E-6	-45.055671
1.53463E-6	-45.104634
1.534675E-6	-45.104634
1.53472E-6	-45.115903
1.534765E-6	-45.084982
1.53481E-6	-45.023794
1.534855E-6	-44.770344
1.5349E-6	-44.323856
1.534945E-6	-43.99136
1.53499E-6	-43.908326
1.535035E-6	-43.880644
1.53508E-6	-43.888079
1.535125E-6	-43.936186
1.53517E-6	-43.942641
1.535215E-6	-44.014283
1.53526E-6	-44.317983
1.535305E-6	-44.759936
1.53535E-6	-45.010006
1.535395E-6	-45.122961
1.53544E-6	-45.066814
1.535485E-6	-45.101821
1.53553E-6	-45.071
1.535575E-6	-45.05011
1.53562E-6	-44.981195
1.535665E-6	-44.6572
1.53571E-6	-44.213608
1.535755E-6	-44.045038
1.5358E-6	-43.983745
1.535845E-6	-44.030732
1.53589E-6	-44.027437
1.535935E-6	-44.027437
1.53598E-6	-44.053865
1.536025E-6	-44.195312
1.53607E-6	-44.596705
1.536115E-6	-44.895891
1.53616E-6	-45.034855
1.536205E-6	-45.026556
1.53625E-6	-45.062632
1.536295E-6	-44.996263
1.53634E-6	-44.977095
1.536385E-6	-45.000381
1.53643E-6	-44.766438
1.536475E-6	-44.36875
1.53652E-6	-44.135252
1.536565E-6	-44.051656
1.53661E-6	-44.034029
1.536655E-6	-44.089354
1.5367E-6	-44.069356
1.536745E-6	-44.061603
1.53679E-6	-44.131877
1.536835E-6	-44.355707
1.53688E-6	-44.713404
1.536925E-6	-44.9026
1.53697E-6	-44.958011
1.537015E-6	-44.964817
1.53706E-6	-44.944431
1.537105E-6	-44.955291
1.53715E-6	-44.933597
1.537195E-6	-44.89187
1.53724E-6	-44.543219
1.537285E-6	-44.235435
1.53733E-6	-44.066032
1.537375E-6	-44.029633
1.53742E-6	-44.019759
1.537465E-6	-44.036229
1.53751E-6	-44.050553
1.537555E-6	-44.017568
1.5376E-6	-44.20445
1.537645E-6	-44.492826
1.53769E-6	-44.787311
1.537735E-6	-44.898573
1.53778E-6	-44.921441
1.537825E-6	-44.899915
1.53787E-6	-44.88384
1.537915E-6	-44.90663
1.53796E-6	-44.863829
1.538005E-6	-44.659739
1.53805E-6	-44.32856
1.538095E-6	-44.086014
1.53814E-6	-44.002261
1.538185E-6	-43.982659
1.53823E-6	-44.003352
1.538275E-6	-44.045038
1.53832E-6	-43.985919
1.538365E-6	-44.05718
1.53841E-6	-44.281748
1.538455E-6	-44.606729
1.5385E-6	-44.817493
1.538545E-6	-44.867824
1.53859E-6	-44.867824
1.538635E-6	-44.861168
1.53868E-6	-44.851867
1.538725E-6	-44.853195
1.53877E-6	-44.78339
1.538815E-6	-44.48672
1.53886E-6	-44.210172
1.538905E-6	-44.006629
1.53895E-6	-43.998987
1.538995E-6	-43.995717
1.53904E-6	-43.981572
1.539085E-6	-43.963145
1.53913E-6	-44.008814
1.539175E-6	-44.14201
1.53922E-6	-44.430947
1.539265E-6	-44.710833
1.53931E-6	-44.875825
1.539355E-6	-44.878495
1.5394E-6	-44.873156
1.539445E-6	-44.866492
1.53949E-6	-44.88384
1.539535E-6	-44.87449
1.53958E-6	-44.678829
1.539625E-6	-44.353339
1.53967E-6	-44.127382
1.539715E-6	-44.026339
1.53976E-6	-44.030732
1.539805E-6	-44.004444
1.53985E-6	-44.016473
1.539895E-6	-44.013189
1.53994E-6	-44.064924
1.539985E-6	-44.299243
1.54003E-6	-44.639468
1.540075E-6	-44.887853
1.54012E-6	-44.921441
1.540165E-6	-44.947143
1.54021E-6	-44.968906
1.540255E-6	-44.920093
1.5403E-6	-44.9485
1.540345E-6	-44.85054
1.54039E-6	-44.580465
1.540435E-6	-44.255057
1.54048E-6	-44.08379
1.540525E-6	-44.05497
1.54057E-6	-44.040631
1.540615E-6	-44.015378
1.54066E-6	-44.021952
1.540705E-6	-44.048346
1.54075E-6	-44.161214
1.540795E-6	-44.455108
1.54084E-6	-44.778167
1.540885E-6	-44.949858
1.54093E-6	-45.000381
1.540975E-6	-45.032087
1.54102E-6	-45.003129
1.541065E-6	-45.014138
1.54111E-6	-44.983931
1.541155E-6	-44.841262
1.5412E-6	-44.501388
1.541245E-6	-44.186193
1.54129E-6	-44.056074
1.541335E-6	-44.047243
1.54138E-6	-44.025242
1.541425E-6	-44.041732
1.54147E-6	-44.028535
1.541515E-6	-44.104972
1.54156E-6	-44.29107
1.541605E-6	-44.638205
1.54165E-6	-44.921441
1.541695E-6	-45.014138
1.54174E-6	-45.065419
1.541785E-6	-45.043169
1.54183E-6	-44.943075
1.541875E-6	-44.490382
1.54192E-6	-41.368557
1.541965E-6	-28.92112
1.54201E-6	-21.251125
1.542055E-6	-18.10229
1.5421E-6	-17.115272
1.542145E-6	-16.933606
1.54219E-6	-16.861328
1.542235E-6	-16.834007
1.54228E-6	-16.959405
1.542325E-6	-18.193008
1.54237E-6	-21.797985
1.542415E-6	-29.558524
1.54246E-6	-39.597934
1.542505E-6	-43.637127
1.54255E-6	-44.789927
1.542595E-6	-45.032087
1.54264E-6	-45.079384
1.542685E-6	-45.100415
1.54273E-6	-45.034855
1.542775E-6	-44.72499
1.54282E-6	-44.337983
1.542865E-6	-44.133002
1.54291E-6	-44.08824
1.542955E-6	-44.076012
1.543E-6	-44.084902
1.543045E-6	-44.086014
1.54309E-6	-44.10609
1.543135E-6	-44.225082
1.54318E-6	-44.568014
1.543225E-6	-44.94172
1.54327E-6	-45.139948
1.543315E-6	-45.174122
1.54336E-6	-45.168408
1.543405E-6	-45.134278
1.54345E-6	-44.889192
1.543495E-6	-43.604139
1.54354E-6	-32.800889
1.543585E-6	-23.028579
1.54363E-6	-18.904215
1.543675E-6	-17.358908
1.54372E-6	-17.070797
1.543765E-6	-16.987529
1.54381E-6	-16.996219
1.543855E-6	-17.057543
1.5439E-6	-17.846268
1.543945E-6	-20.678815
1.54399E-6	-27.2262
1.544035E-6	-37.490923
1.54408E-6	-43.039058
1.544125E-6	-44.766438
1.54417E-6	-45.125788
1.544215E-6	-45.201369
1.54426E-6	-45.236032
1.544305E-6	-45.194182
1.54435E-6	-44.943075
1.544395E-6	-44.514877
1.54444E-6	-44.223933
1.544485E-6	-44.13863
1.54453E-6	-44.137504
1.544575E-6	-44.140883
1.54462E-6	-44.156688
1.544665E-6	-44.15895
1.54471E-6	-44.218194
1.544755E-6	-44.513649
1.5448E-6	-44.953932
1.544845E-6	-45.237482
1.54489E-6	-45.297366
1.544935E-6	-45.303252
1.54498E-6	-45.272436
1.545025E-6	-45.142786
1.54507E-6	-44.46967
1.545115E-6	-38.300318
1.54516E-6	-25.539291
1.545205E-6	-20.140798
1.54525E-6	-17.9129
1.545295E-6	-17.358908
1.54534E-6	-17.293212
1.545385E-6	-17.272304
1.54543E-6	-17.283907
1.545475E-6	-17.654827
1.54552E-6	-19.558524
1.545565E-6	-24.435769
1.54561E-6	-33.559555
1.545655E-6	-41.65961
1.5457E-6	-44.496493
1.545745E-6	-45.162701
1.54579E-6	-45.30178
1.545835E-6	-45.350636
1.54588E-6	-45.343198
1.545925E-6	-45.191311
1.54597E-6	-44.766438
1.546015E-6	-44.386601
1.54606E-6	-44.248122
1.546105E-6	-44.218194
1.54615E-6	-44.218194
1.546195E-6	-44.2159
1.54624E-6	-44.209027
1.546285E-6	-44.243504
1.54633E-6	-44.457532
1.546375E-6	-44.875825
1.54642E-6	-45.241836
1.546465E-6	-45.37153
1.54651E-6	-45.394028
1.546555E-6	-45.389519
1.5466E-6	-45.338741
1.546645E-6	-45.01276
1.54669E-6	-42.931116
1.546735E-6	-30.347042
1.54678E-6	-21.976368
1.546825E-6	-18.591778
1.54687E-6	-17.461776
1.546915E-6	-17.283907
1.54696E-6	-17.251497
1.547005E-6	-17.23998
1.54705E-6	-17.356545
1.547095E-6	-18.449678
1.54714E-6	-21.836924
1.547185E-6	-29.442395
1.54723E-6	-39.453869
1.547275E-6	-43.849974
1.54732E-6	-45.065419
1.547365E-6	-45.362563
1.54741E-6	-45.416644
1.547455E-6	-45.440898
1.5475E-6	-45.353614
1.547545E-6	-45.029321
1.54759E-6	-44.596705
1.547635E-6	-44.342702
1.54768E-6	-44.288737
1.547725E-6	-44.265482
1.54777E-6	-44.266642
1.547815E-6	-44.265482
1.54786E-6	-44.298074
1.547905E-6	-44.399738
1.54795E-6	-44.730149
1.547995E-6	-45.154155
1.54804E-6	-45.397037
1.548085E-6	-45.462231
1.54813E-6	-45.457651
1.548175E-6	-45.450028
1.54822E-6	-45.278289
1.548265E-6	-44.441803
1.54831E-6	-36.216021
1.548355E-6	-24.753443
1.5484E-6	-19.75925
1.548445E-6	-17.772835
1.54849E-6	-17.349462
1.548535E-6	-17.279262
1.54858E-6	-17.23768
1.548625E-6	-17.272304
1.54867E-6	-17.68021
1.548715E-6	-19.702105
1.54876E-6	-24.89187
1.548805E-6	-34.541982
1.54885E-6	-42.050243
1.548895E-6	-44.709548
1.54894E-6	-45.319482
1.548985E-6	-45.431787
1.54903E-6	-45.463759
1.549075E-6	-45.437858
1.54912E-6	-45.281218
1.549165E-6	-44.867824
1.54921E-6	-44.492826
1.549255E-6	-44.335625
1.5493E-6	-44.298074
1.549345E-6	-44.281748
1.54939E-6	-44.281748
1.549435E-6	-44.281748
1.54948E-6	-44.320331
1.549525E-6	-44.507514
1.54957E-6	-44.91605
1.549615E-6	-45.297366
1.54966E-6	-45.450028
1.549705E-6	-45.480601
1.54975E-6	-45.462231
1.549795E-6	-45.409092
1.54984E-6	-45.089186
1.549885E-6	-43.193926
1.54993E-6	-31.110907
1.549975E-6	-22.329184
1.55002E-6	-18.732194
1.550065E-6	-17.539941
1.55011E-6	-17.321246
1.550155E-6	-17.297871
1.5502E-6	-17.283907
1.550245E-6	-17.337683
1.55029E-6	-18.147412
1.550335E-6	-20.924274
1.55038E-6	-27.677665
1.550425E-6	-37.972393
1.55047E-6	-43.382819
1.550515E-6	-45.00863
1.55056E-6	-45.344684
1.550605E-6	-45.412111
1.55065E-6	-45.431787
1.550695E-6	-45.397037
1.55074E-6	-45.118725
1.550785E-6	-44.659739
1.55083E-6	-44.339162
1.550875E-6	-44.244658
1.55092E-6	-44.223933
1.550965E-6	-44.22968
1.55101E-6	-44.22968
1.551055E-6	-44.22968
1.5511E-6	-44.289903
1.551145E-6	-44.563044
1.55119E-6	-45.027938
1.551235E-6	-45.36107
1.55128E-6	-45.431787
1.551325E-6	-45.428754
1.55137E-6	-45.409092
1.551415E-6	-45.313573
1.55146E-6	-44.758636
1.551505E-6	-40.565055
1.55155E-6	-27.013652
1.551595E-6	-20.765487
1.55164E-6	-18.141746
1.551685E-6	-17.420815
1.55173E-6	-17.32359
1.551775E-6	-17.283907
1.55182E-6	-17.272304
1.551865E-6	-17.437635
1.55191E-6	-18.897471
1.551955E-6	-22.908997
1.552E-6	-31.187866
1.552045E-6	-40.308171
1.55209E-6	-44.189611
1.552135E-6	-45.139948
1.55218E-6	-45.335773
1.552225E-6	-45.389519
1.55227E-6	-45.406075
1.552315E-6	-45.294425
1.55236E-6	-44.89321
1.552405E-6	-44.430947
1.55245E-6	-44.195312
1.552495E-6	-44.140883
1.55254E-6	-44.135252
1.552585E-6	-44.137504
1.55263E-6	-44.126258
1.552675E-6	-44.13863
1.55272E-6	-44.257372
1.552765E-6	-44.645793
1.55281E-6	-45.115903
1.552855E-6	-45.349147
1.5529E-6	-45.389519
1.552945E-6	-45.377518
1.55299E-6	-45.344684
1.553035E-6	-45.169836
1.55308E-6	-44.19189
1.553125E-6	-35.707323
1.55317E-6	-24.263163
1.553215E-6	-19.423339
1.55326E-6	-17.544873
1.553305E-6	-17.142177
1.55335E-6	-17.057543
1.553395E-6	-17.033348
1.55344E-6	-17.013652
1.553485E-6	-17.428016
1.55353E-6	-19.476909
1.553575E-6	-24.452686
1.55362E-6	-33.841551
1.553665E-6	-41.58578
1.55371E-6	-44.494048
1.553755E-6	-45.179844
1.5538E-6	-45.318004
1.553845E-6	-45.347659
1.55389E-6	-45.338741
1.553935E-6	-45.144205
1.55398E-6	-44.681381
1.554025E-6	-44.265482
1.55407E-6	-44.081566
1.554115E-6	-44.05497
1.55416E-6	-44.041732
1.554205E-6	-44.024145
1.55425E-6	-44.026339
1.554295E-6	-44.048346
1.55434E-6	-44.236586
1.554385E-6	-44.700566
1.55443E-6	-45.145625
1.554475E-6	-45.320961
1.55452E-6	-45.355105
1.554565E-6	-45.362563
1.55461E-6	-45.374523
1.554655E-6	-45.373026
1.5547E-6	-45.326879
1.554745E-6	-45.096201
1.55479E-6	-44.607984
1.554835E-6	-44.188471
1.55488E-6	-44.014283
1.554925E-6	-43.982659
1.55497E-6	-43.964226
1.555015E-6	-43.959901
1.55506E-6	-43.959901
1.555105E-6	-43.997897
1.55515E-6	-44.223933
1.555195E-6	-44.701848
1.55524E-6	-45.131446
1.555285E-6	-45.294425
1.55533E-6	-45.332806
1.555375E-6	-45.353614
1.55542E-6	-45.346171
1.555465E-6	-45.340226
1.55551E-6	-45.278289
1.555555E-6	-45.034855
1.5556E-6	-44.518564
1.555645E-6	-44.12289
1.55569E-6	-43.973975
1.555735E-6	-43.945872
1.55578E-6	-43.939413
1.555825E-6	-43.923306
1.55587E-6	-43.930815
1.555915E-6	-43.978314
1.55596E-6	-44.20445
1.556005E-6	-44.685211
1.55605E-6	-45.122961
1.556095E-6	-45.28855
1.55614E-6	-45.31505
1.556185E-6	-45.332806
1.55623E-6	-45.319482
1.556275E-6	-45.310622
1.55632E-6	-45.254924
1.556365E-6	-44.985299
1.55641E-6	-44.4855
1.556455E-6	-44.069356
1.5565E-6	-43.931889
1.556545E-6	-43.897658
1.55659E-6	-43.888079
1.556635E-6	-43.900856
1.55668E-6	-43.89979
1.556725E-6	-43.950184
1.55677E-6	-44.187332
1.556815E-6	-44.683934
1.55686E-6	-45.118725
1.556905E-6	-45.272436
1.55695E-6	-45.31505
1.556995E-6	-45.307673
1.55704E-6	-45.304725
1.557085E-6	-45.291487
1.55713E-6	-45.253467
1.557175E-6	-44.968906
1.55722E-6	-44.433357
1.557265E-6	-44.074902
1.55731E-6	-43.926522
1.557355E-6	-43.896593
1.5574E-6	-43.890206
1.557445E-6	-43.897658
1.55749E-6	-43.907258
1.557535E-6	-43.957739
1.55758E-6	-44.209027
1.557625E-6	-44.715976
1.55767E-6	-45.130031
1.557715E-6	-45.290018
1.55776E-6	-45.322439
1.557805E-6	-45.312097
1.55785E-6	-45.306199
1.557895E-6	-45.300308
1.55794E-6	-45.250557
1.557985E-6	-44.968906
1.55803E-6	-44.458744
1.558075E-6	-44.068247
1.55812E-6	-43.926522
1.558165E-6	-43.895528
1.55821E-6	-43.915809
1.558255E-6	-43.927595
1.5583E-6	-43.928668
1.558345E-6	-43.971807
1.55839E-6	-44.225082
1.558435E-6	-44.739193
1.55848E-6	-45.165554
1.558525E-6	-45.310622
1.55857E-6	-45.334289
1.558615E-6	-45.316527
1.55866E-6	-45.320961
1.558705E-6	-45.31505
1.55875E-6	-45.287083
1.558795E-6	-44.992148
1.55884E-6	-44.491604
1.558885E-6	-44.108326
1.55893E-6	-43.988095
1.558975E-6	-43.9794
1.55902E-6	-43.982659
1.559065E-6	-43.995717
1.55911E-6	-43.989183
1.559155E-6	-44.029633
1.5592E-6	-44.285241
1.559245E-6	-44.786004
1.55929E-6	-45.198493
1.559335E-6	-45.340226
1.55938E-6	-45.356595
1.559425E-6	-45.355105
1.55947E-6	-45.36107
1.559515E-6	-45.373026
1.55956E-6	-45.331324
1.559605E-6	-45.048721
1.55965E-6	-44.55312
1.559695E-6	-44.188471
1.55974E-6	-44.063817
1.559785E-6	-44.071573
1.55983E-6	-44.077122
1.559875E-6	-44.086014
1.55992E-6	-44.08824
1.559965E-6	-44.131877
1.56001E-6	-44.388986
1.560055E-6	-44.859838
1.5601E-6	-45.268051
1.560145E-6	-45.388017
1.56019E-6	-45.406075
1.560235E-6	-45.404567
1.56028E-6	-45.415132
1.560325E-6	-45.425723
1.56037E-6	-45.386516
1.560415E-6	-45.13853
1.56046E-6	-44.654662
1.560505E-6	-44.307432
1.56055E-6	-44.187332
1.560595E-6	-44.182778
1.56064E-6	-44.189611
1.560685E-6	-44.19189
1.56073E-6	-44.189611
1.560775E-6	-44.236586
1.56082E-6	-44.479405
1.560865E-6	-44.917397
1.56091E-6	-45.300308
1.560955E-6	-45.428754
1.561E-6	-45.431787
1.561045E-6	-45.446982
1.56109E-6	-45.456125
1.561135E-6	-45.462231
1.56118E-6	-45.43027
1.561225E-6	-45.194182
1.56127E-6	-44.753443
1.561315E-6	-44.414114
1.56136E-6	-44.314463
1.561405E-6	-44.31329
1.56145E-6	-44.312118
1.561495E-6	-44.309774
1.56154E-6	-44.308603
1.561585E-6	-44.354523
1.56163E-6	-44.560561
1.561675E-6	-44.977095
1.56172E-6	-45.32836
1.561765E-6	-45.446982
1.56181E-6	-45.465288
1.561855E-6	-45.483671
1.5619E-6	-45.49443
1.561945E-6	-45.49443
1.56199E-6	-45.466817
1.562035E-6	-45.281218
1.56208E-6	-44.899915
1.562125E-6	-44.566771
1.56217E-6	-44.449056
1.562215E-6	-44.42132
1.56226E-6	-44.424928
1.562305E-6	-44.422523
1.56235E-6	-44.422523
1.562395E-6	-44.447846
1.56244E-6	-44.625587
1.562485E-6	-44.981195
1.56253E-6	-45.322439
1.562575E-6	-45.453076
1.56262E-6	-45.491353
1.562665E-6	-45.512937
1.56271E-6	-45.512937
1.562755E-6	-45.517576
1.5628E-6	-45.49443
1.562845E-6	-45.349147
1.56289E-6	-44.996263
1.562935E-6	-44.681381
1.56298E-6	-44.550642
1.563025E-6	-44.524714
1.56307E-6	-44.517335
1.563115E-6	-44.529641
1.56316E-6	-44.529641
1.563205E-6	-44.560561
1.56325E-6	-44.687766
1.563295E-6	-45.003129
1.56334E-6	-45.338741
1.563385E-6	-45.474469
1.56343E-6	-45.516029
1.563475E-6	-45.536182
