Wavelength (nm)	Power (dBm)
1.525E-6	-83.930815
1.525045E-6	-83.187588
1.52509E-6	-84.000078
1.525135E-6	-84.405722
1.52518E-6	-89.208188
1.525225E-6	-92.074682
1.52527E-6	-120
1.525315E-6	-97.804155
1.52536E-6	-120
1.525405E-6	-120
1.52545E-6	-94.451476
1.525495E-6	-92.714839
1.52554E-6	-83.885954
1.525585E-6	-83.455347
1.52563E-6	-82.948208
1.525675E-6	-82.690563
1.52572E-6	-80.316105
1.525765E-6	-83.104248
1.52581E-6	-81.777665
1.525855E-6	-81.693472
1.5259E-6	-83.681505
1.525945E-6	-84.672456
1.52599E-6	-94.177093
1.526035E-6	-99.645703
1.52608E-6	-95.482136
1.526125E-6	-120
1.52617E-6	-96.33017
1.526215E-6	-89.017025
1.52626E-6	-86.5738
1.526305E-6	-84.458744
1.52635E-6	-81.981163
1.526395E-6	-79.800533
1.52644E-6	-80.621813
1.526485E-6	-80.687456
1.52653E-6	-80.521253
1.526575E-6	-80.64896
1.52662E-6	-80.478859
1.526665E-6	-81.696038
1.52671E-6	-83.91795
1.526755E-6	-87.23768
1.5268E-6	-88.150248
1.526845E-6	-93.483344
1.52689E-6	-90.590355
1.526935E-6	-89.048306
1.52698E-6	-95.592483
1.527025E-6	-87.599502
1.52707E-6	-84.160082
1.527115E-6	-80.671712
1.52716E-6	-79.892761
1.527205E-6	-79.734667
1.52725E-6	-79.389247
1.527295E-6	-79.476909
1.52734E-6	-79.617774
1.527385E-6	-79.295927
1.52743E-6	-79.948195
1.527475E-6	-82.450404
1.52752E-6	-87.915586
1.527565E-6	-91.862856
1.52761E-6	-89.685915
1.527655E-6	-87.500682
1.5277E-6	-90.155177
1.527745E-6	-89.28118
1.52779E-6	-97.662426
1.527835E-6	-85.201369
1.52788E-6	-80.59135
1.527925E-6	-79.574245
1.52797E-6	-78.716007
1.528015E-6	-78.303256
1.52806E-6	-78.601209
1.528105E-6	-78.664611
1.52815E-6	-78.44057
1.528195E-6	-79.211808
1.52824E-6	-80.225508
1.528285E-6	-83.129172
1.52833E-6	-88.87395
1.528375E-6	-88.010681
1.52842E-6	-88.572978
1.528465E-6	-103.179452
1.52851E-6	-101.173616
1.528555E-6	-120
1.5286E-6	-85.25638
1.528645E-6	-82.332155
1.52869E-6	-78.989406
1.528735E-6	-77.557229
1.52878E-6	-78.167302
1.528825E-6	-78.046539
1.52887E-6	-78.501653
1.528915E-6	-77.715996
1.52896E-6	-77.915586
1.529005E-6	-78.850556
1.52905E-6	-82.085199
1.529095E-6	-85.853609
1.52914E-6	-89.277501
1.529185E-6	-87.81202
1.52923E-6	-91.782245
1.529275E-6	-93.644157
1.52932E-6	-120
1.529365E-6	-86.897316
1.52941E-6	-82.861736
1.529455E-6	-79.150664
1.5295E-6	-77.74174
1.529545E-6	-77.632109
1.52959E-6	-77.664962
1.529635E-6	-77.939841
1.52968E-6	-77.647241
1.529725E-6	-77.10411
1.52977E-6	-78.294449
1.529815E-6	-80.483711
1.52986E-6	-84.006629
1.529905E-6	-87.057543
1.52995E-6	-89.215432
1.529995E-6	-86.33017
1.53004E-6	-89.35542
1.530085E-6	-100.113519
1.53013E-6	-89.314431
1.530175E-6	-83.055703
1.53022E-6	-78.968807
1.530265E-6	-77.440043
1.53031E-6	-77.447275
1.530355E-6	-77.144427
1.5304E-6	-77.325936
1.530445E-6	-77.23768
1.53049E-6	-77.20105
1.530535E-6	-77.500682
1.53058E-6	-79.503944
1.530625E-6	-83.267947
1.53067E-6	-85.162701
1.530715E-6	-97.124222
1.53076E-6	-86.942188
1.530805E-6	-87.316561
1.53085E-6	-98.303256
1.530895E-6	-89.351678
1.53094E-6	-85.608253
1.530985E-6	-80.354104
1.53103E-6	-77.307206
1.531075E-6	-77.242281
1.53112E-6	-76.978856
1.531165E-6	-76.708056
1.53121E-6	-76.784016
1.531255E-6	-77.117508
1.5313E-6	-77.055338
1.531345E-6	-78.87395
1.53139E-6	-80.859214
1.531435E-6	-85.306199
1.53148E-6	-97.888795
1.531525E-6	-89.262816
1.53157E-6	-97.670039
1.531615E-6	-120
1.53166E-6	-91.557714
1.531705E-6	-87.007107
1.53175E-6	-81.925326
1.531795E-6	-78.728952
1.53184E-6	-77.055338
1.531885E-6	-76.950788
1.53193E-6	-76.942188
1.531975E-6	-76.689778
1.53202E-6	-76.882461
1.532065E-6	-77.503126
1.53211E-6	-78.116341
1.532155E-6	-79.742846
1.5322E-6	-82.406344
1.532245E-6	-90.617305
1.53229E-6	-93.014645
1.532335E-6	-91.337718
1.53238E-6	-87.692957
1.532425E-6	-90.214999
1.53247E-6	-87.966951
1.532515E-6	-83.425617
1.53256E-6	-80.25903
1.532605E-6	-78.08549
1.53265E-6	-77.549811
1.532695E-6	-77.031155
1.53274E-6	-76.981023
1.532785E-6	-77.068585
1.53283E-6	-76.985359
1.532875E-6	-77.87546
1.53292E-6	-79.389247
1.532965E-6	-81.963381
1.53301E-6	-84.709548
1.533055E-6	-88.262312
1.5331E-6	-88.941493
1.533145E-6	-88.096683
1.53319E-6	-92.227182
1.533235E-6	-87.180581
1.53328E-6	-89.590023
1.533325E-6	-81.433919
1.53337E-6	-78.667805
1.533415E-6	-77.274622
1.53346E-6	-77.464197
1.533505E-6	-77.119745
1.53355E-6	-78.052082
1.533595E-6	-77.899492
1.53364E-6	-77.883456
1.533685E-6	-78.8706
1.53373E-6	-80.856568
1.533775E-6	-84.686488
1.53382E-6	-89.97402
1.533865E-6	-120
1.53391E-6	-89.37418
1.533955E-6	-93.976144
1.534E-6	-90.672726
1.534045E-6	-94.198737
1.53409E-6	-83.623102
1.534135E-6	-80.339052
1.53418E-6	-78.16161
1.534225E-6	-78.173001
1.53427E-6	-78.247782
1.534315E-6	-78.190144
1.53436E-6	-78.693447
1.534405E-6	-78.642315
1.53445E-6	-78.374356
1.534495E-6	-80.277972
1.53454E-6	-83.688607
1.534585E-6	-89.157813
1.53463E-6	-89.661743
1.534675E-6	-88.877302
1.53472E-6	-89.299621
1.534765E-6	-90.843891
1.53481E-6	-97.002748
1.534855E-6	-86.170829
1.5349E-6	-82.576677
1.534945E-6	-79.880069
1.53499E-6	-78.910969
1.535035E-6	-78.78112
1.53508E-6	-78.520147
1.535125E-6	-78.996295
1.53517E-6	-79.04482
1.535215E-6	-78.884015
1.53526E-6	-79.897
1.535305E-6	-82.620127
1.53535E-6	-84.937656
1.535395E-6	-86.671577
1.53544E-6	-89.629721
1.535485E-6	-87.92635
1.53553E-6	-97.690404
1.535575E-6	-87.263044
1.53562E-6	-90.90337
1.535665E-6	-84.408118
1.53571E-6	-82.0607
1.535755E-6	-79.30702
1.5358E-6	-79.918258
1.535845E-6	-79.179331
1.53589E-6	-79.609827
1.535935E-6	-79.28118
1.53598E-6	-79.829667
1.536025E-6	-80.416273
1.53607E-6	-81.139043
1.536115E-6	-83.881705
1.53616E-6	-120
1.536205E-6	-90.814979
1.53625E-6	-120
1.536295E-6	-92.155967
1.53634E-6	-91.066267
1.536385E-6	-120
1.53643E-6	-88.613816
1.536475E-6	-82.14599
1.53652E-6	-80.832303
1.536565E-6	-79.863203
1.53661E-6	-80.447453
1.536655E-6	-80.006519
1.5367E-6	-79.613798
1.536745E-6	-79.609827
1.53679E-6	-80.772745
1.536835E-6	-80.208615
1.53688E-6	-83.635121
1.536925E-6	-86.416844
1.53697E-6	-88.353498
1.537015E-6	-91.291281
1.53706E-6	-90.377728
1.537105E-6	-98.256494
1.53715E-6	-89.164974
1.537195E-6	-92.94564
1.53724E-6	-85.52222
1.537285E-6	-82.4344
1.53733E-6	-80.209983
1.537375E-6	-80.504636
1.53742E-6	-80.157428
1.537465E-6	-80.337174
1.53751E-6	-79.982663
1.537555E-6	-80.893756
1.5376E-6	-80.004345
1.537645E-6	-81.964746
1.53769E-6	-85.936302
1.537735E-6	-89.850597
1.53778E-6	-100.878843
1.537825E-6	-97.785858
1.53787E-6	-120
1.537915E-6	-98.877302
1.53796E-6	-120
1.538005E-6	-89.30702
1.53805E-6	-84.137504
1.538095E-6	-81.681942
1.53814E-6	-81.042461
1.538185E-6	-80.090399
1.53823E-6	-80.574959
1.538275E-6	-80.963675
1.53832E-6	-79.582127
1.538365E-6	-80.538918
1.53841E-6	-81.91654
1.538455E-6	-82.582183
1.5385E-6	-86.183435
1.538545E-6	-95.553308
1.53859E-6	-120
1.538635E-6	-92.185319
1.53868E-6	-109.318141
1.538725E-6	-88.005191
1.53877E-6	-95.616159
1.538815E-6	-84.877159
1.53886E-6	-82.268721
1.538905E-6	-80.852867
1.53895E-6	-80.256726
1.538995E-6	-80.311903
1.53904E-6	-80.206793
1.539085E-6	-82.245352
1.53913E-6	-81.202162
1.539175E-6	-80.776379
1.53922E-6	-81.47703
1.539265E-6	-83.529106
1.53931E-6	-88.416375
1.539355E-6	-89.446217
1.5394E-6	-120
1.539445E-6	-95.592483
1.53949E-6	-120
1.539535E-6	-88.8706
1.53958E-6	-86.418747
1.539625E-6	-84.613006
1.53967E-6	-81.29362
1.539715E-6	-80.756173
1.53976E-6	-80.75669
1.539805E-6	-80.153377
1.53985E-6	-80.66614
1.539895E-6	-79.681877
1.53994E-6	-79.229957
1.539985E-6	-80.875654
1.54003E-6	-83.494011
1.540075E-6	-85.733261
1.54012E-6	-93.097153
1.540165E-6	-88.335699
1.54021E-6	-91.495989
1.540255E-6	-101.259823
1.5403E-6	-90.106392
1.540345E-6	-87.584535
1.54039E-6	-87.144427
1.540435E-6	-82.305488
1.54048E-6	-80.808696
1.540525E-6	-79.948195
1.54057E-6	-80.363066
1.540615E-6	-80.112182
1.54066E-6	-79.645703
1.540705E-6	-80.440238
1.54075E-6	-79.901244
1.540795E-6	-80.650473
1.54084E-6	-86.769543
1.540885E-6	-85.649524
1.54093E-6	-93.808023
1.540975E-6	-97.918275
1.54102E-6	-90.984872
1.541065E-6	-100.956091
1.54111E-6	-98.738686
1.541155E-6	-85.909126
1.5412E-6	-83.964226
1.541245E-6	-81.402614
1.54129E-6	-79.892761
1.541335E-6	-79.488475
1.54138E-6	-79.480761
1.541425E-6	-79.625735
1.54147E-6	-80.078443
1.541515E-6	-79.995659
1.54156E-6	-79.590023
1.541605E-6	-82.768728
1.54165E-6	-86.352614
1.541695E-6	-120
1.54174E-6	-89.423339
1.541785E-6	-96.378947
1.54183E-6	-85.797141
1.541875E-6	-90.975076
1.54192E-6	-87.647241
1.541965E-6	-86.19427
1.54201E-6	-83.740705
1.542055E-6	-80.686438
1.5421E-6	-79.476909
1.542145E-6	-79.661743
1.54219E-6	-79.453869
1.542235E-6	-80.00391
1.54228E-6	-79.469216
1.542325E-6	-79.465374
1.54237E-6	-80.378201
1.542415E-6	-81.382864
1.54246E-6	-86.080069
1.542505E-6	-88.054857
1.54255E-6	-88.958544
1.542595E-6	-92.718086
1.54264E-6	-92.632052
1.542685E-6	-94.08824
1.54273E-6	-87.788467
1.542775E-6	-84.843911
1.54282E-6	-80.798767
1.542865E-6	-79.918258
1.54291E-6	-79.597934
1.542955E-6	-78.91435
1.543E-6	-79.685915
1.543045E-6	-79.366666
1.54309E-6	-78.768019
1.543135E-6	-79.792245
1.54318E-6	-80.681355
1.543225E-6	-83.178549
1.54327E-6	-91.149216
1.543315E-6	-86.78816
1.54336E-6	-114.92684
1.543405E-6	-120
1.54345E-6	-91.018235
1.543495E-6	-95.090588
1.54354E-6	-88.173001
1.543585E-6	-82.49029
1.54363E-6	-80.433034
1.543675E-6	-79.746941
1.54372E-6	-79.048306
1.543765E-6	-79.570309
1.54381E-6	-79.157813
1.543855E-6	-80.066079
1.5439E-6	-79.197344
1.543945E-6	-79.812995
1.54399E-6	-82.591638
1.544035E-6	-84.677554
1.54408E-6	-88.065971
1.544125E-6	-86.441655
1.54417E-6	-120
1.544215E-6	-86.491707
1.54426E-6	-120
1.544305E-6	-87.135435
1.54435E-6	-86.857113
1.544395E-6	-81.417035
1.54444E-6	-79.961088
1.544485E-6	-79.219058
1.54453E-6	-79.076303
1.544575E-6	-78.904215
1.54462E-6	-79.175737
1.544665E-6	-79.229957
1.54471E-6	-79.605859
1.544755E-6	-80.203606
1.5448E-6	-82.309921
1.544845E-6	-90.232833
1.54489E-6	-92.419212
1.544935E-6	-90.940423
1.54498E-6	-120
1.545025E-6	-86.443569
1.54507E-6	-81.132837
1.545115E-6	-68.262312
1.54516E-6	-53.388501
1.545205E-6	-47.488487
1.54525E-6	-44.758636
1.545295E-6	-44.263163
1.54534E-6	-44.20445
1.545385E-6	-44.189611
1.54543E-6	-44.233132
1.545475E-6	-44.564286
1.54552E-6	-46.617428
1.545565E-6	-51.369152
1.54561E-6	-61.090204
1.545655E-6	-68.703101
1.5457E-6	-76.501399
1.545745E-6	-82.179576
1.54579E-6	-86.418747
1.545835E-6	-86.397854
1.54588E-6	-86.7305
1.545925E-6	-91.386448
1.54597E-6	-82.894596
1.546015E-6	-80.5061
1.54606E-6	-79.427144
1.546105E-6	-78.860566
1.54615E-6	-79.058784
1.546195E-6	-79.04482
1.54624E-6	-78.996295
1.546285E-6	-79.147094
1.54633E-6	-79.775716
1.546375E-6	-81.517493
1.54642E-6	-83.876401
1.546465E-6	-91.28719
1.54651E-6	-89.918258
1.546555E-6	-93.231236
1.5466E-6	-86.720284
1.546645E-6	-88.645493
1.54669E-6	-89.24453
1.546735E-6	-85.91082
1.54678E-6	-81.826991
1.546825E-6	-80.131387
1.54687E-6	-78.92112
1.546915E-6	-78.917733
1.54696E-6	-79.400581
1.547005E-6	-78.863908
1.54705E-6	-78.53252
1.547095E-6	-79.136402
1.54714E-6	-79.50782
1.547185E-6	-80.86451
1.54723E-6	-85.409092
1.547275E-6	-88.256494
1.54732E-6	-87.057543
1.547365E-6	-89.645703
1.54741E-6	-89.299621
1.547455E-6	-90.370154
1.5475E-6	-91.015491
1.547545E-6	-84.275931
1.54759E-6	-81.324736
1.547635E-6	-79.779843
1.54768E-6	-79.108016
1.547725E-6	-79.333014
1.54777E-6	-79.277501
1.547815E-6	-78.948306
1.54786E-6	-78.999743
1.547905E-6	-78.979095
1.54795E-6	-79.952488
1.547995E-6	-82.34108
1.54804E-6	-90.269646
1.548085E-6	-90.774821
1.54813E-6	-120
1.548175E-6	-120
1.54822E-6	-89.303319
1.548265E-6	-87.117508
1.54831E-6	-98.016179
1.548355E-6	-84.034029
1.5484E-6	-80.746363
1.548445E-6	-79.055289
1.54849E-6	-79.010104
1.548535E-6	-78.51089
1.54858E-6	-78.989406
1.548625E-6	-79.051796
1.54867E-6	-79.093893
1.548715E-6	-79.550685
1.54876E-6	-80.793029
1.548805E-6	-83.361107
1.54885E-6	-88.585502
1.548895E-6	-89.867413
1.54894E-6	-90
1.548985E-6	-87.632109
1.54903E-6	-88.877302
1.549075E-6	-87.983298
1.54912E-6	-87.988761
1.549165E-6	-84.170281
1.54921E-6	-79.694003
1.549255E-6	-79.531148
1.5493E-6	-79.072794
1.549345E-6	-78.551146
1.54939E-6	-78.820662
1.549435E-6	-78.566729
1.54948E-6	-78.332739
1.549525E-6	-79.118639
1.54957E-6	-81.30006
1.549615E-6	-83.577334
1.54966E-6	-92.684112
1.549705E-6	-89.825493
1.54975E-6	-106.057235
1.549795E-6	-91.175324
1.54984E-6	-83.444774
1.549885E-6	-75.632015
1.54993E-6	-59.542859
1.549975E-6	-49.734667
1.55002E-6	-45.413622
1.550065E-6	-44.295738
1.55011E-6	-44.103855
1.550155E-6	-44.04614
1.5502E-6	-44.018664
1.550245E-6	-44.089354
1.55029E-6	-44.90663
1.550335E-6	-47.89414
1.55038E-6	-54.345064
1.550425E-6	-63.34044
1.55047E-6	-72.003149
1.550515E-6	-79.586073
1.55056E-6	-84.652126
1.550605E-6	-86.629403
1.55065E-6	-88.904215
1.550695E-6	-89.523358
1.55074E-6	-86.104795
1.550785E-6	-80.703767
1.55083E-6	-79.681877
1.550875E-6	-78.693447
1.55092E-6	-79.200955
1.550965E-6	-78.683813
1.55101E-6	-78.850556
1.551055E-6	-78.768019
1.5511E-6	-79.277501
1.551145E-6	-80.174122
1.55119E-6	-81.660246
1.551235E-6	-85.687971
1.55128E-6	-120
1.551325E-6	-87.79369
1.55137E-6	-97.279262
1.551415E-6	-90.552213
1.55146E-6	-120
1.551505E-6	-87.710866
1.55155E-6	-84.590452
1.551595E-6	-80.902301
1.55164E-6	-79.215432
1.551685E-6	-78.655041
1.55173E-6	-78.461851
1.551775E-6	-78.850556
1.55182E-6	-79.168559
1.551865E-6	-78.894103
1.55191E-6	-78.735439
1.551955E-6	-80.555173
1.552E-6	-82.781894
1.552045E-6	-84.068247
1.55209E-6	-90.683896
1.552135E-6	-91.099704
1.55218E-6	-120
1.552225E-6	-88.082696
1.55227E-6	-120
1.552315E-6	-91.204454
1.55236E-6	-84.381833
1.552405E-6	-81.261565
1.55245E-6	-79.125735
1.552495E-6	-78.224635
1.55254E-6	-79.284862
1.552585E-6	-78.703101
1.55263E-6	-78.620133
1.552675E-6	-78.153086
1.55272E-6	-78.523237
1.552765E-6	-80.204972
1.55281E-6	-82.260674
1.552855E-6	-91.267375
1.5529E-6	-95.011383
1.552945E-6	-95.534628
1.55299E-6	-91.473371
1.553035E-6	-89.677843
1.55308E-6	-120
1.553125E-6	-86.099485
1.55317E-6	-83.332013
1.553215E-6	-79.952488
1.55326E-6	-79.020489
1.553305E-6	-78.44664
1.55335E-6	-78.404328
1.553395E-6	-78.38632
1.55344E-6	-78.948306
1.553485E-6	-78.648673
1.55353E-6	-78.961963
1.553575E-6	-80.443122
1.55362E-6	-83.595186
1.553665E-6	-86.708056
1.55371E-6	-84.295738
1.553755E-6	-88.434508
1.5538E-6	-91.026479
1.553845E-6	-120
1.55389E-6	-93.833145
1.553935E-6	-85.069604
1.55398E-6	-83.016384
1.554025E-6	-79.649707
1.55407E-6	-78.4649
1.554115E-6	-78.213108
1.55416E-6	-78.498578
1.554205E-6	-78.016179
1.55425E-6	-78.401322
1.554295E-6	-78.443604
1.55434E-6	-78.560489
1.554385E-6	-80.332483
1.55443E-6	-85.586191
1.554475E-6	-88.437538
1.55452E-6	-120
1.554565E-6	-95.181276
1.55461E-6	-92.041895
1.554655E-6	-94.810914
1.5547E-6	-85.797141
1.554745E-6	-88.309136
1.55479E-6	-82.432878
1.554835E-6	-79.465374
1.55488E-6	-78.804142
1.554925E-6	-77.734001
1.55497E-6	-78.591778
1.555015E-6	-78.520147
1.55506E-6	-78.837244
1.555105E-6	-77.988761
1.55515E-6	-79.072794
1.555195E-6	-80.370627
1.55524E-6	-84.008814
1.555285E-6	-88.45576
1.55533E-6	-86.68168
1.555375E-6	-88.557372
1.55542E-6	-120
1.555465E-6	-93.9794
1.55551E-6	-120
1.555555E-6	-85.878756
1.5556E-6	-82.821631
1.555645E-6	-79.465374
1.55569E-6	-78.44057
1.555735E-6	-78.271053
1.55578E-6	-78.810742
1.555825E-6	-78.06319
1.55587E-6	-78.794261
1.555915E-6	-78.27689
1.55596E-6	-78.797552
1.556005E-6	-81.157145
1.55605E-6	-82.977418
1.556095E-6	-87.619539
1.55614E-6	-120
1.556185E-6	-120
1.55623E-6	-120
1.556275E-6	-93.439977
1.55632E-6	-89.871628
1.556365E-6	-85.846927
1.55641E-6	-81.90171
1.556455E-6	-79.125735
1.5565E-6	-78.093882
1.556545E-6	-78.010681
1.55659E-6	-77.983298
1.556635E-6	-78.155925
1.55668E-6	-78.091083
1.556725E-6	-78.716007
1.55677E-6	-78.407337
1.556815E-6	-80.9232
1.55686E-6	-84.700566
1.556905E-6	-89.086848
1.55695E-6	-92.174557
1.556995E-6	-94.714689
1.55704E-6	-120
1.557085E-6	-91.400216
1.55713E-6	-95.204247
1.557175E-6	-87.749493
1.55722E-6	-81.351331
1.557265E-6	-79.389247
1.55731E-6	-78.138916
1.557355E-6	-77.983298
1.5574E-6	-77.953375
1.557445E-6	-78.107905
1.55749E-6	-78.244882
1.557535E-6	-77.994231
1.55758E-6	-78.492436
1.557625E-6	-80.924812
1.55767E-6	-82.916641
1.557715E-6	-87.785858
1.55776E-6	-89.730584
1.557805E-6	-91.739252
1.55785E-6	-93.49304
1.557895E-6	-98.096683
1.55794E-6	-87.629592
1.557985E-6	-85.373026
1.55803E-6	-81.877553
1.558075E-6	-79.017025
1.55812E-6	-77.999707
1.558165E-6	-78.268137
1.55821E-6	-78.190144
1.558255E-6	-77.953375
1.5583E-6	-77.624563
1.558345E-6	-77.942545
1.55839E-6	-79.314431
1.558435E-6	-80.540393
1.55848E-6	-84.918745
1.558525E-6	-88.005191
1.55857E-6	-88.041003
1.558615E-6	-89.511699
1.55866E-6	-92.920043
1.558705E-6	-120
1.55875E-6	-93.625103
1.558795E-6	-85.469876
1.55884E-6	-81.8303
1.558885E-6	-79.251836
1.55893E-6	-78.709549
1.558975E-6	-78.306195
1.55902E-6	-78.897471
1.559065E-6	-78.175853
1.55911E-6	-78.344589
1.559155E-6	-78.33866
1.5592E-6	-79.288547
1.559245E-6	-80.625323
1.55929E-6	-84.705696
1.559335E-6	-91.771131
1.55938E-6	-89.586073
1.559425E-6	-88.897471
1.55947E-6	-89.511699
1.559515E-6	-90.044964
1.55956E-6	-88.029953
1.559605E-6	-86.784016
1.55965E-6	-82.468768
1.559695E-6	-79.788107
1.55974E-6	-78.404328
1.559785E-6	-78.526329
1.55983E-6	-78.751699
1.559875E-6	-78.187282
1.55992E-6	-78.389316
1.559965E-6	-78.569852
1.56001E-6	-79.665762
1.560055E-6	-80.615303
1.5601E-6	-86.511113
1.560145E-6	-90.220479
1.56019E-6	-89.222688
1.560235E-6	-96.06074
1.56028E-6	-90.27057
1.560325E-6	-88.495506
1.56037E-6	-88.999743
1.560415E-6	-86.247023
1.56046E-6	-82.822463
1.560505E-6	-80.007824
1.56055E-6	-79.104481
1.560595E-6	-79.20457
1.56064E-6	-78.797552
1.560685E-6	-78.461851
1.56073E-6	-79.048306
1.560775E-6	-78.938091
1.56082E-6	-79.821323
1.560865E-6	-81.389438
1.56091E-6	-84.770344
1.560955E-6	-88.566729
1.561E-6	-97.888795
1.561045E-6	-94.472101
1.56109E-6	-120
1.561135E-6	-120
1.56118E-6	-87.907532
1.561225E-6	-86.50334
1.56127E-6	-82.539889
1.561315E-6	-80.487111
1.56136E-6	-79.617774
1.561405E-6	-79.197344
1.56145E-6	-79.434763
1.561495E-6	-79.168559
1.56154E-6	-79.262816
1.561585E-6	-79.93962
1.56163E-6	-79.333014
1.561675E-6	-81.995579
1.56172E-6	-84.458744
1.561765E-6	-87.710866
1.56181E-6	-91.919241
1.561855E-6	-94.46724
1.5619E-6	-94.336804
1.561945E-6	-120
1.56199E-6	-91.217655
1.562035E-6	-88.535619
1.56208E-6	-82.300322
1.562125E-6	-80.55172
1.56217E-6	-79.888526
1.562215E-6	-79.500071
1.56226E-6	-79.558524
1.562305E-6	-79.259153
1.56235E-6	-79.722428
1.562395E-6	-80.045842
1.56244E-6	-80.567529
1.562485E-6	-81.30827
1.56253E-6	-85.726762
1.562575E-6	-94.30392
1.56262E-6	-100.25903
1.562665E-6	-92.874345
1.56271E-6	-93.435185
1.562755E-6	-99.115095
1.5628E-6	-93.226668
1.562845E-6	-87.746907
1.56289E-6	-84.668637
1.562935E-6	-80.744301
1.56298E-6	-79.965395
1.563025E-6	-80.000434
1.56307E-6	-80.298392
1.563115E-6	-79.771594
1.56316E-6	-79.582127
1.563205E-6	-80.451306
1.56325E-6	-80.032257
1.563295E-6	-82.106308
1.56334E-6	-86.252517
1.563385E-6	-88.024438
1.56343E-6	-93.09361
1.563475E-6	-90.765487
1.56352E-6	-93.693688
1.563565E-6	-95.720273
1.56361E-6	-94.252744
1.563655E-6	-88.794261
1.5637E-6	-85.148467
1.563745E-6	-82.570393
1.56379E-6	-80.744816
1.563835E-6	-80.570995
1.56388E-6	-80.633857
1.563925E-6	-81.167361
