Wavelength (nm)	Power (dBm)
1.525E-6	-57.416022
1.525045E-6	-57.444863
1.52509E-6	-58.181564
1.525135E-6	-60.260413
1.52518E-6	-64.175957
1.525225E-6	-67.670039
1.52527E-6	-68.735439
1.525315E-6	-68.437538
1.52536E-6	-68.884015
1.525405E-6	-68.680607
1.52545E-6	-66.274562
1.525495E-6	-61.406815
1.52554E-6	-57.996968
1.525585E-6	-56.585655
1.52563E-6	-56.199698
1.525675E-6	-56.010189
1.52572E-6	-55.8603
1.525765E-6	-55.676722
1.52581E-6	-55.597208
1.525855E-6	-56.104795
1.5259E-6	-58.035475
1.525945E-6	-61.593921
1.52599E-6	-66.328305
1.526035E-6	-68.483238
1.52608E-6	-68.774565
1.526125E-6	-68.735439
1.52617E-6	-68.629625
1.526215E-6	-66.679657
1.52626E-6	-61.29479
1.526305E-6	-57.135435
1.52635E-6	-55.312097
1.526395E-6	-54.799097
1.52644E-6	-54.618034
1.526485E-6	-54.532106
1.52653E-6	-54.445428
1.526575E-6	-54.394956
1.52662E-6	-54.704413
1.526665E-6	-56.176227
1.52671E-6	-59.515582
1.526755E-6	-64.321505
1.5268E-6	-67.846268
1.526845E-6	-68.572978
1.52689E-6	-68.582368
1.526935E-6	-68.623295
1.52698E-6	-67.249191
1.527025E-6	-61.698606
1.52707E-6	-56.687752
1.527115E-6	-54.392567
1.52716E-6	-53.593198
1.527205E-6	-53.386607
1.52725E-6	-53.315209
1.527295E-6	-53.244049
1.52734E-6	-53.209357
1.527385E-6	-53.358283
1.52743E-6	-54.455108
1.527475E-6	-57.384992
1.52752E-6	-62.046762
1.527565E-6	-66.794383
1.52761E-6	-68.383326
1.527655E-6	-68.458805
1.5277E-6	-68.425432
1.527745E-6	-67.862167
1.52779E-6	-62.72947
1.527835E-6	-56.842395
1.52788E-6	-53.819519
1.527925E-6	-52.707542
1.52797E-6	-52.423004
1.528015E-6	-52.361978
1.52806E-6	-52.338103
1.528105E-6	-52.281187
1.52815E-6	-52.312879
1.528195E-6	-53.046059
1.52824E-6	-55.326879
1.528285E-6	-59.593977
1.52833E-6	-64.979828
1.528375E-6	-67.614521
1.52842E-6	-67.703182
1.528465E-6	-66.655462
1.52851E-6	-62.865095
1.528555E-6	-53.383766
1.5286E-6	-37.629592
1.528645E-6	-31.175893
1.52869E-6	-28.190144
1.528735E-6	-27.265357
1.52878E-6	-27.018021
1.528825E-6	-26.890944
1.52887E-6	-26.811023
1.528915E-6	-26.948637
1.52896E-6	-28.554258
1.529005E-6	-32.734358
1.52905E-6	-41.123264
1.529095E-6	-51.990081
1.52914E-6	-60.279824
1.529185E-6	-64.30392
1.52923E-6	-66.029295
1.529275E-6	-64.140883
1.52932E-6	-57.535014
1.529365E-6	-41.368557
1.52941E-6	-32.776952
1.529455E-6	-28.965384
1.5295E-6	-27.440043
1.529545E-6	-27.10634
1.52959E-6	-26.976691
1.529635E-6	-26.867657
1.52968E-6	-26.863437
1.529725E-6	-27.851562
1.52977E-6	-30.850754
1.529815E-6	-38.190144
1.52986E-6	-48.810742
1.529905E-6	-58.190144
1.52995E-6	-63.030324
1.529995E-6	-65.717032
1.53004E-6	-65.014138
1.530085E-6	-60.553693
1.53013E-6	-47.637147
1.530175E-6	-34.745664
1.53022E-6	-29.702105
1.530265E-6	-27.612014
1.53031E-6	-27.035542
1.530355E-6	-26.91009
1.5304E-6	-26.798537
1.530445E-6	-26.79646
1.53049E-6	-27.185121
1.530535E-6	-29.336741
1.53058E-6	-34.517335
1.530625E-6	-43.95342
1.53067E-6	-55.155578
1.530715E-6	-61.754186
1.53076E-6	-65.055671
1.530805E-6	-65.600361
1.53085E-6	-62.389747
1.530895E-6	-52.988639
1.53094E-6	-37.196493
1.530985E-6	-30.957715
1.53103E-6	-28.010681
1.531075E-6	-27.171514
1.53112E-6	-26.9897
1.531165E-6	-26.92504
1.53121E-6	-26.871882
1.531255E-6	-27.055338
1.5313E-6	-28.513973
1.531345E-6	-32.383728
1.53139E-6	-40.291419
1.531435E-6	-51.359638
1.53148E-6	-59.905491
1.531525E-6	-64.049449
1.53157E-6	-65.782316
1.531615E-6	-64.050553
1.53166E-6	-58.155925
1.531705E-6	-41.209041
1.53175E-6	-32.714839
1.531795E-6	-28.642315
1.53184E-6	-27.166988
1.531885E-6	-26.878226
1.53193E-6	-26.819367
1.531975E-6	-26.808939
1.53202E-6	-26.873996
1.532065E-6	-27.612014
1.53211E-6	-30.232375
1.532155E-6	-36.544302
1.5322E-6	-46.815193
1.532245E-6	-56.899443
1.53229E-6	-62.107719
1.532335E-6	-65.400047
1.53238E-6	-65.115903
1.532425E-6	-60.9442
1.53247E-6	-49.111554
1.532515E-6	-35.217222
1.53256E-6	-29.617774
1.532605E-6	-27.420815
1.53265E-6	-26.916491
1.532695E-6	-26.834007
1.53274E-6	-26.831912
1.532785E-6	-26.880343
1.53283E-6	-27.302536
1.532875E-6	-29.284862
1.53292E-6	-33.932963
1.532965E-6	-42.762161
1.53301E-6	-54.272445
1.533055E-6	-61.262726
1.5331E-6	-64.757337
1.533145E-6	-65.744658
1.53319E-6	-63.439018
1.533235E-6	-56.03452
1.53328E-6	-39.645703
1.533325E-6	-31.808511
1.53337E-6	-28.297383
1.533415E-6	-27.070797
1.53346E-6	-26.92504
1.533505E-6	-26.92718
1.53355E-6	-26.987529
1.533595E-6	-27.228494
1.53364E-6	-28.247782
1.533685E-6	-31.511338
1.53373E-6	-38.817353
1.533775E-6	-49.255493
1.53382E-6	-58.626459
1.533865E-6	-63.361107
1.53391E-6	-65.792194
1.533955E-6	-64.89321
1.534E-6	-60.135866
1.534045E-6	-47.584535
1.53409E-6	-34.31329
1.534135E-6	-29.336741
1.53418E-6	-27.325936
1.534225E-6	-26.948637
1.53427E-6	-26.955095
1.534315E-6	-27.061956
1.53436E-6	-27.164726
1.534405E-6	-27.708303
1.53445E-6	-29.838026
1.534495E-6	-34.983931
1.53454E-6	-44.243504
1.534585E-6	-55.244741
1.53463E-6	-62.011423
1.534675E-6	-65.236032
1.53472E-6	-65.728386
1.534765E-6	-62.775306
1.53481E-6	-54.427335
1.534855E-6	-37.964232
1.5349E-6	-30.953926
1.534945E-6	-27.772835
1.53499E-6	-26.85922
1.535035E-6	-26.794383
1.53508E-6	-26.880343
1.535125E-6	-27.007107
1.53517E-6	-27.288557
1.535215E-6	-28.591778
1.53526E-6	-32.206922
1.535305E-6	-39.554602
1.53535E-6	-50.970729
1.535395E-6	-59.75925
1.53544E-6	-63.956659
1.535485E-6	-65.987718
1.53553E-6	-64.687766
1.535575E-6	-59.783973
1.53562E-6	-46.515004
1.535665E-6	-33.956659
1.53571E-6	-29.076303
1.535755E-6	-27.124222
1.5358E-6	-26.765416
1.535845E-6	-26.808939
1.53589E-6	-26.888822
1.535935E-6	-26.987529
1.53598E-6	-27.637147
1.536025E-6	-29.897
1.53607E-6	-35.652715
1.536115E-6	-45.540846
1.53616E-6	-56.219657
1.536205E-6	-62.480284
1.53625E-6	-65.389519
1.536295E-6	-65.808707
1.53634E-6	-62.632849
1.536385E-6	-54.226231
1.53643E-6	-37.883456
1.536475E-6	-30.951763
1.53652E-6	-27.79369
1.536565E-6	-26.920763
1.53661E-6	-26.850799
1.536655E-6	-26.914356
1.5367E-6	-26.985359
1.536745E-6	-27.176045
1.53679E-6	-28.535619
1.536835E-6	-32.186755
1.53688E-6	-39.788107
1.536925E-6	-51.110347
1.53697E-6	-59.846402
1.537015E-6	-64.037329
1.53706E-6	-66.080069
1.537105E-6	-64.816177
1.53715E-6	-59.897
1.537195E-6	-46.716204
1.53724E-6	-34.087127
1.537285E-6	-29.211808
1.53733E-6	-27.281584
1.537375E-6	-26.905828
1.53742E-6	-26.865546
1.537465E-6	-26.888822
1.53751E-6	-26.948637
1.537555E-6	-27.500682
1.5376E-6	-29.775716
1.537645E-6	-35.332806
1.53769E-6	-45.313573
1.537735E-6	-55.989443
1.53778E-6	-62.228633
1.537825E-6	-65.310622
1.53787E-6	-65.931193
1.537915E-6	-63.186683
1.53796E-6	-55.443939
1.538005E-6	-38.91435
1.53805E-6	-31.396021
1.538095E-6	-28.041003
1.53814E-6	-26.916491
1.538185E-6	-26.773673
1.53823E-6	-26.761294
1.538275E-6	-26.744843
1.53832E-6	-26.8867
1.538365E-6	-28.08549
1.53841E-6	-31.541581
1.538455E-6	-39.351678
1.5385E-6	-50.185892
1.538545E-6	-59.069287
1.53859E-6	-63.555614
1.538635E-6	-66.013657
1.53868E-6	-65.147046
1.538725E-6	-60.857627
1.53877E-6	-48.380334
1.538815E-6	-35.021033
1.53886E-6	-29.653715
1.538905E-6	-27.547342
1.53895E-6	-27.053134
1.538995E-6	-26.944337
1.53904E-6	-26.937895
1.539085E-6	-26.918626
1.53913E-6	-27.32359
1.539175E-6	-29.377942
1.53922E-6	-34.447846
1.539265E-6	-43.893398
1.53931E-6	-55.110265
1.539355E-6	-61.750935
1.5394E-6	-65.108856
1.539445E-6	-65.922693
1.53949E-6	-63.434227
1.539535E-6	-56.232406
1.53958E-6	-39.519468
1.539625E-6	-31.88291
1.53967E-6	-28.392314
1.539715E-6	-27.162466
1.53976E-6	-26.903698
1.539805E-6	-26.815193
1.53985E-6	-26.827727
1.539895E-6	-26.861328
1.53994E-6	-27.827793
1.539985E-6	-30.962049
1.54003E-6	-38.601209
1.540075E-6	-49.069287
1.54012E-6	-58.437538
1.540165E-6	-63.082115
1.54021E-6	-65.779028
1.540255E-6	-65.418156
1.5403E-6	-61.394823
1.540345E-6	-49.986991
1.54039E-6	-35.840256
1.540435E-6	-30.108172
1.54048E-6	-27.604503
1.540525E-6	-26.970201
1.54057E-6	-26.821455
1.540615E-6	-26.763355
1.54066E-6	-26.757175
1.540705E-6	-27.048729
1.54075E-6	-28.827287
1.540795E-6	-33.404641
1.54084E-6	-42.144566
1.540885E-6	-53.053071
1.54093E-6	-60.924812
1.540975E-6	-64.662279
1.54102E-6	-65.980827
1.541065E-6	-64.194171
1.54111E-6	-58.526329
1.541155E-6	-42.116902
1.5412E-6	-33.082998
1.541245E-6	-28.948306
1.54129E-6	-27.318903
1.541335E-6	-26.968039
1.54138E-6	-26.880343
1.541425E-6	-26.817279
1.54147E-6	-26.850799
1.541515E-6	-27.587026
1.54156E-6	-30.297926
1.541605E-6	-36.763355
1.54165E-6	-46.92718
1.541695E-6	-57.004927
1.54174E-6	-62.238802
1.541785E-6	-65.466817
1.54183E-6	-65.652715
1.541875E-6	-62.327699
1.54192E-6	-53.046935
1.541965E-6	-36.987529
1.54201E-6	-30.696624
1.542055E-6	-27.775437
1.5421E-6	-26.994045
1.542145E-6	-26.831912
1.54219E-6	-26.771607
1.542235E-6	-26.720284
1.54228E-6	-26.871882
1.542325E-6	-28.184422
1.54237E-6	-31.895658
1.542415E-6	-39.461536
1.54246E-6	-50.464336
1.542505E-6	-59.37418
1.54255E-6	-63.64818
1.542595E-6	-65.929492
1.54264E-6	-64.930893
1.542685E-6	-60.268259
1.54273E-6	-47.187393
1.542775E-6	-34.492826
1.54282E-6	-29.535048
1.542865E-6	-27.525177
1.54291E-6	-27.079656
1.542955E-6	-26.974526
1.543E-6	-26.93575
1.543045E-6	-26.914356
1.54309E-6	-27.258422
1.543135E-6	-29.233596
1.54318E-6	-34.028535
1.543225E-6	-43.643152
1.54327E-6	-54.700566
1.543315E-6	-61.438756
1.54336E-6	-64.851867
1.543405E-6	-65.86365
1.54345E-6	-63.589227
1.543495E-6	-56.552149
1.54354E-6	-40.266412
1.543585E-6	-32.316579
1.54363E-6	-28.53872
1.543675E-6	-27.235382
1.54372E-6	-26.981023
1.543765E-6	-26.869769
1.54381E-6	-26.878226
1.543855E-6	-26.905828
1.5439E-6	-27.675121
1.543945E-6	-30.403863
1.54399E-6	-36.978856
1.544035E-6	-47.380238
1.54408E-6	-57.171514
1.544125E-6	-62.31732
1.54417E-6	-65.465288
1.544215E-6	-65.506759
1.54426E-6	-61.959288
1.544305E-6	-52.321024
1.54435E-6	-36.639407
1.544395E-6	-30.538918
1.54444E-6	-27.8199
1.544485E-6	-27.077439
1.54453E-6	-26.942188
1.544575E-6	-26.888822
1.54462E-6	-26.876111
1.544665E-6	-27.031155
1.54471E-6	-28.279812
1.544755E-6	-32.04398
1.5448E-6	-39.817157
1.544845E-6	-50.917831
1.54489E-6	-59.586073
1.544935E-6	-63.789276
1.54498E-6	-65.875395
1.545025E-6	-64.735315
1.54507E-6	-59.948195
1.545115E-6	-46.441655
1.54516E-6	-34.256214
1.545205E-6	-29.408154
1.54525E-6	-27.4958
1.545295E-6	-27.079656
1.54534E-6	-27.020208
1.545385E-6	-26.970201
1.54543E-6	-26.976691
1.545475E-6	-27.375489
1.54552E-6	-29.450041
1.545565E-6	-34.292236
1.54561E-6	-43.476569
1.545655E-6	-54.734023
1.5457E-6	-61.460586
1.545745E-6	-64.875825
1.54579E-6	-65.967079
1.545835E-6	-63.809067
1.54588E-6	-57.300203
1.545925E-6	-40.965844
1.54597E-6	-32.344059
1.546015E-6	-28.50473
1.54606E-6	-27.162466
1.546105E-6	-26.912222
1.54615E-6	-26.863437
1.546195E-6	-26.836102
1.54624E-6	-26.880343
1.546285E-6	-27.577071
1.54633E-6	-30.109954
1.546375E-6	-36.245193
1.54642E-6	-46.458916
1.546465E-6	-56.685727
1.54651E-6	-62.567255
1.546555E-6	-65.424209
1.5466E-6	-65.667103
1.546645E-6	-62.563335
1.54669E-6	-53.226668
1.546735E-6	-37.515363
1.54678E-6	-30.975619
1.546825E-6	-28.074325
1.54687E-6	-27.171514
1.546915E-6	-26.991872
1.54696E-6	-26.957249
1.547005E-6	-26.948637
1.54705E-6	-27.077439
1.547095E-6	-28.153086
1.54714E-6	-31.402015
1.547185E-6	-38.931295
1.54723E-6	-49.321855
1.547275E-6	-58.610661
1.54732E-6	-63.289198
1.547365E-6	-65.728386
1.54741E-6	-65.141367
1.547455E-6	-61.048538
1.5475E-6	-49.609827
1.547545E-6	-35.514483
1.54759E-6	-29.817157
1.547635E-6	-27.435228
1.54768E-6	-26.876111
1.547725E-6	-26.769543
1.54777E-6	-26.746896
1.547815E-6	-26.781945
1.54786E-6	-26.9897
1.547905E-6	-28.523237
1.54795E-6	-32.621715
1.547995E-6	-40.963133
1.54804E-6	-51.841567
1.548085E-6	-59.965395
1.54813E-6	-64.092696
1.548175E-6	-65.853609
1.54822E-6	-64.55312
1.548265E-6	-59.208188
1.54831E-6	-43.583276
1.548355E-6	-33.739678
1.5484E-6	-29.143527
1.548445E-6	-27.337683
1.54849E-6	-26.920763
1.548535E-6	-26.871882
1.54858E-6	-26.873996
1.548625E-6	-26.871882
1.54867E-6	-27.286231
1.548715E-6	-29.408154
1.54876E-6	-34.440596
1.548805E-6	-43.915809
1.54885E-6	-54.875825
1.548895E-6	-61.649439
1.54894E-6	-64.914703
1.548985E-6	-65.883803
1.54903E-6	-63.699791
1.549075E-6	-56.781945
1.54912E-6	-41.034738
1.549165E-6	-32.486439
1.54921E-6	-28.520147
1.549255E-6	-27.081873
1.5493E-6	-26.836102
1.549345E-6	-26.773673
1.54939E-6	-26.777807
1.549435E-6	-26.825635
1.54948E-6	-27.493361
1.549525E-6	-29.978339
1.54957E-6	-35.9176
1.549615E-6	-45.812017
1.54966E-6	-56.19427
1.549705E-6	-62.401056
1.54975E-6	-65.260753
1.549795E-6	-65.728386
1.54984E-6	-62.739251
1.549885E-6	-54.708264
1.54993E-6	-38.291518
1.549975E-6	-31.276106
1.55002E-6	-28.052082
1.550065E-6	-27.070797
1.55011E-6	-26.893067
1.550155E-6	-26.861328
1.5502E-6	-26.846595
1.550245E-6	-26.876111
1.55029E-6	-27.662426
1.550335E-6	-30.440238
1.55038E-6	-37.178312
1.550425E-6	-47.8199
1.55047E-6	-57.396901
1.550515E-6	-62.562551
1.55056E-6	-65.517576
1.550605E-6	-65.437858
1.55065E-6	-61.726954
1.550695E-6	-51.737308
1.55074E-6	-36.397854
1.550785E-6	-30.474982
1.55083E-6	-27.739159
1.550875E-6	-27.011469
1.55092E-6	-26.852903
1.550965E-6	-26.823545
1.55101E-6	-26.806857
1.551055E-6	-26.920763
1.5511E-6	-28.04931
1.551145E-6	-31.432107
1.55119E-6	-39.35542
1.551235E-6	-49.714287
1.55128E-6	-58.741935
1.551325E-6	-63.317073
1.55137E-6	-65.787252
1.551415E-6	-65.174122
1.55146E-6	-61.079054
1.551505E-6	-49.613798
1.55155E-6	-35.853609
1.551595E-6	-30.05287
1.55164E-6	-27.624563
1.551685E-6	-27.011469
1.55173E-6	-26.918626
1.551775E-6	-26.88458
1.55182E-6	-26.865546
1.551865E-6	-27.066374
1.55191E-6	-28.495506
1.551955E-6	-32.373965
1.552E-6	-40.205427
1.552045E-6	-51.193579
1.55209E-6	-59.681877
1.552135E-6	-63.909395
1.55218E-6	-65.8603
1.552225E-6	-64.676279
1.55227E-6	-59.833845
1.552315E-6	-46.699923
1.55236E-6	-34.365189
1.552405E-6	-29.393022
1.55245E-6	-27.399286
1.552495E-6	-26.981023
1.55254E-6	-26.893067
1.552585E-6	-26.850799
1.55263E-6	-26.855008
1.552675E-6	-27.153437
1.55272E-6	-28.968807
1.552765E-6	-33.602148
1.55281E-6	-42.243896
1.552855E-6	-52.855864
1.5529E-6	-60.848113
1.552945E-6	-64.535807
1.55299E-6	-65.965363
1.553035E-6	-64.183916
1.55308E-6	-58.768019
1.553125E-6	-42.949064
1.55317E-6	-33.200273
1.553215E-6	-28.830604
1.55326E-6	-27.173779
1.553305E-6	-26.85922
1.55335E-6	-26.792308
1.553395E-6	-26.742791
1.55344E-6	-26.744843
1.553485E-6	-27.176045
1.55353E-6	-29.240882
1.553575E-6	-34.193031
1.55362E-6	-43.426573
1.553665E-6	-54.397346
1.55371E-6	-61.110907
1.553755E-6	-64.730149
1.5538E-6	-65.84359
1.553845E-6	-63.939413
1.55389E-6	-57.404061
1.553935E-6	-41.243022
1.55398E-6	-32.629665
1.554025E-6	-28.655041
1.55407E-6	-27.263044
1.554115E-6	-26.959405
1.55416E-6	-26.88458
1.554205E-6	-26.848697
1.55425E-6	-26.882461
1.554295E-6	-27.318903
1.55434E-6	-29.550685
1.554385E-6	-34.94172
1.55443E-6	-44.604221
1.554475E-6	-55.353614
1.55452E-6	-61.75744
1.554565E-6	-65.09199
1.55461E-6	-65.83859
1.554655E-6	-63.382819
1.5547E-6	-55.885487
1.554745E-6	-39.673812
1.55479E-6	-31.936843
1.554835E-6	-28.380334
1.55488E-6	-27.176045
1.554925E-6	-26.880343
1.55497E-6	-26.817279
1.555015E-6	-26.831912
1.55506E-6	-26.842395
1.555105E-6	-27.380238
1.55515E-6	-29.746941
1.555195E-6	-35.617742
1.55524E-6	-45.831931
1.555285E-6	-55.833595
1.55533E-6	-62.20115
1.555375E-6	-65.230235
1.55542E-6	-65.759355
1.555465E-6	-62.868456
1.55551E-6	-54.782084
1.555555E-6	-38.554258
1.5556E-6	-31.400815
1.555645E-6	-28.184422
1.55569E-6	-27.142177
1.555735E-6	-26.978856
1.55578E-6	-26.916491
1.555825E-6	-26.876111
1.55587E-6	-26.944337
1.555915E-6	-27.512913
1.55596E-6	-29.969705
1.556005E-6	-36.08712
1.55605E-6	-46.341378
1.556095E-6	-56.505282
1.55614E-6	-62.550815
1.556185E-6	-65.431787
1.55623E-6	-65.772461
1.556275E-6	-62.812493
1.55632E-6	-54.367563
1.556365E-6	-38.323873
1.55641E-6	-31.402614
1.556455E-6	-28.150248
1.5565E-6	-27.059749
1.556545E-6	-26.850799
1.55659E-6	-26.844495
1.556635E-6	-26.863437
1.55668E-6	-26.903698
1.556725E-6	-27.654827
1.55677E-6	-30.358819
1.556815E-6	-36.842395
1.55686E-6	-47.126462
1.556905E-6	-56.867657
1.55695E-6	-62.116902
1.556995E-6	-65.489815
1.55704E-6	-65.774102
1.557085E-6	-62.546129
1.55713E-6	-54.157819
1.557175E-6	-37.988761
1.55722E-6	-31.112029
1.557265E-6	-27.975117
1.55731E-6	-26.937895
1.557355E-6	-26.759234
1.5574E-6	-26.728455
1.557445E-6	-26.728455
1.55749E-6	-26.78816
1.557535E-6	-27.584535
1.55758E-6	-30.401957
1.557625E-6	-37.020208
1.55767E-6	-47.612014
1.557715E-6	-57.039933
1.55776E-6	-62.153114
1.557805E-6	-65.516029
1.55785E-6	-65.767541
1.557895E-6	-62.552378
1.55794E-6	-53.854191
1.557985E-6	-37.833064
1.55803E-6	-31.175324
1.558075E-6	-27.942545
1.55812E-6	-26.852903
1.558165E-6	-26.655462
1.55821E-6	-26.655462
1.558255E-6	-26.683703
1.5583E-6	-26.746896
1.558345E-6	-27.589518
1.55839E-6	-30.496351
1.558435E-6	-37.33298
1.55848E-6	-47.577071
1.558525E-6	-57.14893
1.55857E-6	-62.308443
1.558615E-6	-65.598784
1.55866E-6	-65.760991
1.558705E-6	-62.54769
1.55875E-6	-53.551677
1.558795E-6	-37.692957
1.55884E-6	-31.02263
1.558885E-6	-27.85421
1.55893E-6	-26.899443
1.558975E-6	-26.742791
1.55902E-6	-26.74074
1.559065E-6	-26.757175
1.55911E-6	-26.848697
1.559155E-6	-27.68021
1.5592E-6	-30.383891
1.559245E-6	-37.015836
1.55929E-6	-47.461776
1.559335E-6	-57.061956
1.55938E-6	-62.272384
1.559425E-6	-65.619325
1.55947E-6	-65.764265
1.559515E-6	-62.584545
1.55956E-6	-53.586251
1.559605E-6	-37.574586
1.55965E-6	-30.901232
1.559695E-6	-27.956087
1.55974E-6	-27.031155
1.559785E-6	-26.897316
1.55983E-6	-26.922901
1.559875E-6	-26.950788
1.55992E-6	-27.053134
1.559965E-6	-27.899492
1.56001E-6	-30.668165
1.560055E-6	-37.456937
1.5601E-6	-47.708303
1.560145E-6	-57.325936
1.56019E-6	-62.340336
1.560235E-6	-65.741399
1.56028E-6	-65.914209
1.560325E-6	-62.92515
1.56037E-6	-54.492826
1.560415E-6	-38.395315
1.56046E-6	-31.200444
1.560505E-6	-27.942545
1.56055E-6	-26.92504
1.560595E-6	-26.746896
1.56064E-6	-26.765416
1.560685E-6	-26.827727
1.56073E-6	-26.942188
1.560775E-6	-27.79369
1.56082E-6	-30.612302
1.560865E-6	-37.31422
1.56091E-6	-47.718564
1.560955E-6	-57.307206
1.561E-6	-62.418454
1.561045E-6	-65.689581
1.56109E-6	-65.951663
1.561135E-6	-62.914941
1.56118E-6	-54.901257
1.561225E-6	-38.44664
1.56127E-6	-31.222832
1.561315E-6	-27.9129
1.56136E-6	-26.895191
1.561405E-6	-26.757175
1.56145E-6	-26.784016
1.561495E-6	-26.852903
1.56154E-6	-26.952941
1.561585E-6	-27.675121
1.56163E-6	-30.287242
1.561675E-6	-36.667543
1.56172E-6	-46.699923
1.561765E-6	-56.808939
1.56181E-6	-62.016947
1.561855E-6	-65.537736
1.5619E-6	-66.152883
1.561945E-6	-63.647174
1.56199E-6	-56.460838
1.562035E-6	-40.296996
1.56208E-6	-31.894987
1.562125E-6	-28.239087
1.56217E-6	-26.957249
1.562215E-6	-26.765416
1.56226E-6	-26.802695
1.562305E-6	-26.8867
1.56235E-6	-26.978856
1.562395E-6	-27.522722
1.56244E-6	-29.775716
1.562485E-6	-35.252012
1.56253E-6	-44.800408
1.562575E-6	-55.486742
1.56262E-6	-61.980478
1.562665E-6	-65.292956
1.56271E-6	-66.223296
1.562755E-6	-64.127382
1.5628E-6	-58.032713
1.562845E-6	-41.498441
1.56289E-6	-32.479516
1.562935E-6	-28.389316
1.56298E-6	-26.931463
1.563025E-6	-26.720284
1.56307E-6	-26.744843
1.563115E-6	-26.831912
1.56316E-6	-26.940041
1.563205E-6	-27.420815
1.56325E-6	-29.629721
1.563295E-6	-34.690323
1.56334E-6	-44.457532
1.563385E-6	-54.996263
1.56343E-6	-61.747037
