Wavelength (nm)	Power (dBm)
1.525E-6	-49.097419
1.525045E-6	-48.989406
1.52509E-6	-49.079815
1.525135E-6	-49.423339
1.52518E-6	-49.746941
1.525225E-6	-49.817157
1.52527E-6	-49.767475
1.525315E-6	-49.685915
1.52536E-6	-49.597934
1.525405E-6	-49.511699
1.52545E-6	-49.299621
1.525495E-6	-48.716007
1.52554E-6	-47.966951
1.525585E-6	-47.447275
1.52563E-6	-47.207895
1.525675E-6	-47.044329
1.52572E-6	-46.878226
1.525765E-6	-46.710091
1.52581E-6	-46.583677
1.525855E-6	-46.722325
1.5259E-6	-47.31422
1.525945E-6	-48.077114
1.52599E-6	-48.422411
1.526035E-6	-48.44664
1.52608E-6	-48.401322
1.526125E-6	-48.329782
1.52617E-6	-48.250684
1.526215E-6	-48.077114
1.52626E-6	-47.349462
1.526305E-6	-46.216021
1.52635E-6	-45.332806
1.526395E-6	-45.0515
1.52644E-6	-44.898573
1.526485E-6	-44.761235
1.52653E-6	-44.644527
1.526575E-6	-44.549404
1.52662E-6	-44.701848
1.526665E-6	-45.462231
1.52671E-6	-46.597542
1.526755E-6	-47.309543
1.5268E-6	-47.430418
1.526845E-6	-47.408842
1.52689E-6	-47.354183
1.526935E-6	-47.300203
1.52698E-6	-47.130946
1.527025E-6	-46.208759
1.52707E-6	-44.696722
1.527115E-6	-43.599163
1.52716E-6	-43.158731
1.527205E-6	-42.997291
1.52725E-6	-42.897134
1.527295E-6	-42.813323
1.52734E-6	-42.778599
1.527385E-6	-42.846653
1.52743E-6	-43.56646
1.527475E-6	-45.09199
1.52752E-6	-46.35449
1.527565E-6	-46.732546
1.52761E-6	-46.765416
1.527655E-6	-46.724367
1.5277E-6	-46.687752
1.527745E-6	-46.601512
1.52779E-6	-45.826944
1.527835E-6	-43.9794
1.52788E-6	-42.500319
1.527925E-6	-41.856192
1.52797E-6	-41.692831
1.528015E-6	-41.631065
1.52806E-6	-41.590788
1.528105E-6	-41.515645
1.52815E-6	-41.577653
1.528195E-6	-42.191069
1.52824E-6	-43.729415
1.528285E-6	-45.523769
1.52833E-6	-46.287474
1.528375E-6	-46.409238
1.52842E-6	-46.378947
1.528465E-6	-46.252517
1.52851E-6	-45.643149
1.528555E-6	-40.831251
1.5286E-6	-28.774565
1.528645E-6	-21.777011
1.52869E-6	-18.894103
1.528735E-6	-18.021683
1.52878E-6	-17.796304
1.528825E-6	-17.6675
1.52887E-6	-17.574586
1.528915E-6	-17.75726
1.52896E-6	-19.3968
1.529005E-6	-23.739678
1.52905E-6	-33.061851
1.529095E-6	-41.544059
1.52914E-6	-45.165554
1.529185E-6	-46.013657
1.52923E-6	-46.143937
1.529275E-6	-45.920995
1.52932E-6	-44.258529
1.529365E-6	-32.591638
1.52941E-6	-23.472703
1.529455E-6	-19.755143
1.5295E-6	-18.33866
1.529545E-6	-18.01893
1.52959E-6	-17.9129
1.529635E-6	-17.851562
1.52968E-6	-17.886124
1.529725E-6	-18.890738
1.52977E-6	-22.102078
1.529815E-6	-29.637705
1.52986E-6	-39.767475
1.529905E-6	-44.514877
1.52995E-6	-45.8603
1.529995E-6	-46.120765
1.53004E-6	-46.048484
1.530085E-6	-45.254924
1.53013E-6	-38.147412
1.530175E-6	-25.775743
1.53022E-6	-20.926424
1.530265E-6	-18.894103
1.53031E-6	-18.392314
1.530355E-6	-18.259402
1.5304E-6	-18.195874
1.530445E-6	-18.184422
1.53049E-6	-18.651856
1.530535E-6	-20.85181
1.53058E-6	-26.26904
1.530625E-6	-36.185239
1.53067E-6	-43.193926
1.530715E-6	-45.58462
1.53076E-6	-46.085356
1.530805E-6	-46.11366
1.53085E-6	-45.699249
1.530895E-6	-42.116902
1.53094E-6	-29.08333
1.530985E-6	-22.322506
1.53103E-6	-19.523358
1.531075E-6	-18.728952
1.53112E-6	-18.569852
1.531165E-6	-18.50473
1.53121E-6	-18.489367
1.531255E-6	-18.696662
1.5313E-6	-20.147532
1.531345E-6	-24.24235
1.53139E-6	-32.620921
1.531435E-6	-41.678105
1.53148E-6	-45.21145
1.531525E-6	-46.048484
1.53157E-6	-46.192462
1.531615E-6	-45.996347
1.53166E-6	-44.565528
1.531705E-6	-33.362991
1.53175E-6	-24.134127
1.531795E-6	-20.282604
1.53184E-6	-18.843895
1.531885E-6	-18.541823
1.53193E-6	-18.513973
1.531975E-6	-18.507809
1.53202E-6	-18.569852
1.532065E-6	-19.318141
1.53211E-6	-22.107719
1.532155E-6	-28.601209
1.5322E-6	-38.968807
1.532245E-6	-44.348608
1.53229E-6	-45.941416
1.532335E-6	-46.259853
1.53238E-6	-46.221476
1.532425E-6	-45.556429
1.53247E-6	-39.527251
1.532515E-6	-26.556077
1.53256E-6	-21.235512
1.532605E-6	-19.111554
1.53265E-6	-18.629625
1.532695E-6	-18.554258
1.53274E-6	-18.560489
1.532785E-6	-18.598063
1.53283E-6	-19.0309
1.532875E-6	-21.008364
1.53292E-6	-25.877075
1.532965E-6	-35.331324
1.53301E-6	-43.025091
1.533055E-6	-45.795491
1.5331E-6	-46.397854
1.533145E-6	-46.474316
1.53319E-6	-46.188849
1.533235E-6	-43.99136
1.53328E-6	-31.690266
1.533325E-6	-23.2615
1.53337E-6	-19.825493
1.533415E-6	-18.693447
1.53346E-6	-18.544928
1.533505E-6	-18.579235
1.53355E-6	-18.645493
1.533595E-6	-18.830604
1.53364E-6	-19.892761
1.533685E-6	-23.304972
1.53373E-6	-30.679323
1.533775E-6	-40.4072
1.53382E-6	-45.197055
1.533865E-6	-46.482037
1.53391E-6	-46.7305
1.533955E-6	-46.621416
1.534E-6	-45.675117
1.534045E-6	-37.23768
1.53409E-6	-25.603516
1.534135E-6	-20.739664
1.53418E-6	-18.827287
1.534225E-6	-18.44664
1.53427E-6	-18.477117
1.534315E-6	-18.557372
1.53436E-6	-18.671002
1.534405E-6	-19.233596
1.53445E-6	-21.500281
1.534495E-6	-26.714166
1.53454E-6	-36.395959
1.534585E-6	-43.841551
1.53463E-6	-46.418747
1.534675E-6	-46.978856
1.53472E-6	-47.011469
1.534765E-6	-46.577748
1.53481E-6	-43.530085
1.534855E-6	-30.009565
1.5349E-6	-22.364971
1.534945E-6	-19.270153
1.53499E-6	-18.392314
1.535035E-6	-18.332739
1.53508E-6	-18.416375
1.535125E-6	-18.498578
1.53517E-6	-18.774565
1.535215E-6	-20.167798
1.53526E-6	-23.956659
1.535305E-6	-31.972947
1.53535E-6	-41.481304
1.535395E-6	-46.029295
1.53544E-6	-47.164726
1.535485E-6	-47.356545
1.53553E-6	-47.189666
1.535575E-6	-45.972229
1.53562E-6	-36.261689
1.535665E-6	-25.214335
1.53571E-6	-20.34281
1.535755E-6	-18.501653
1.5358E-6	-18.167302
1.535845E-6	-18.204482
1.53589E-6	-18.271053
1.535935E-6	-18.37137
1.53598E-6	-18.996295
1.536025E-6	-21.436337
1.53607E-6	-27.219327
1.536115E-6	-37.535014
1.53616E-6	-44.524714
1.536205E-6	-47.026773
1.53625E-6	-47.56962
1.536295E-6	-47.594508
1.53634E-6	-47.046529
1.536385E-6	-43.350761
1.53643E-6	-29.613798
1.536475E-6	-22.027325
1.53652E-6	-19.017025
1.536565E-6	-18.158766
1.53661E-6	-18.057633
1.536655E-6	-18.133261
1.5367E-6	-18.190144
1.536745E-6	-18.374356
1.53679E-6	-19.771594
1.536835E-6	-23.588235
1.53688E-6	-31.868195
1.536925E-6	-41.588283
1.53697E-6	-46.328305
1.537015E-6	-47.582046
1.53706E-6	-47.814645
1.537105E-6	-47.609509
1.53715E-6	-46.219657
1.537195E-6	-36.127882
1.53724E-6	-24.762535
1.537285E-6	-20.084638
1.53733E-6	-18.227522
1.537375E-6	-17.838341
1.53742E-6	-17.8199
1.537465E-6	-17.840982
1.53751E-6	-17.891466
1.537555E-6	-18.452718
1.5376E-6	-20.846002
1.537645E-6	-26.589614
1.53769E-6	-36.957249
1.537735E-6	-44.30509
1.53778E-6	-47.126462
1.537825E-6	-47.814645
1.53787E-6	-47.886124
1.537915E-6	-47.328283
1.53796E-6	-43.9545
1.538005E-6	-30.199966
1.53805E-6	-22.116902
1.538095E-6	-18.843895
1.53814E-6	-17.856861
1.538185E-6	-17.687854
1.53823E-6	-17.639669
1.538275E-6	-17.647241
1.53832E-6	-17.806775
1.538365E-6	-18.975663
1.53841E-6	-22.660007
1.538455E-6	-30.523703
1.5385E-6	-40.518806
1.538545E-6	-45.970512
1.53859E-6	-47.562181
1.538635E-6	-47.90217
1.53868E-6	-47.739159
1.538725E-6	-46.591595
1.53877E-6	-38.057633
1.538815E-6	-25.611413
1.53886E-6	-20.332483
1.538905E-6	-18.33866
1.53895E-6	-17.896815
1.538995E-6	-17.809397
1.53904E-6	-17.75208
1.539085E-6	-17.754669
1.53913E-6	-18.17015
1.539175E-6	-20.323116
1.53922E-6	-25.70894
1.539265E-6	-35.759355
1.53931E-6	-43.666326
1.539355E-6	-46.957249
1.5394E-6	-47.736579
1.539445E-6	-47.814645
1.53949E-6	-47.328283
1.539535E-6	-44.58296
1.53958E-6	-30.937727
1.539625E-6	-22.548471
1.53967E-6	-19.115095
1.539715E-6	-17.966951
1.53976E-6	-17.739159
1.539805E-6	-17.687854
1.53985E-6	-17.639669
1.539895E-6	-17.728849
1.53994E-6	-18.712777
1.539985E-6	-22.036338
1.54003E-6	-29.566377
1.540075E-6	-39.669786
1.54012E-6	-45.463759
1.540165E-6	-47.293212
1.54021E-6	-47.692957
1.540255E-6	-47.584535
1.5403E-6	-46.663512
1.540345E-6	-39.838026
1.54039E-6	-26.485902
1.540435E-6	-20.828097
1.54048E-6	-18.467951
1.540525E-6	-17.840982
1.54057E-6	-17.698066
1.540615E-6	-17.649768
1.54066E-6	-17.614521
1.540705E-6	-17.929045
1.54075E-6	-19.779843
1.540795E-6	-24.539511
1.54084E-6	-33.879583
1.540885E-6	-42.650402
1.54093E-6	-46.420652
1.540975E-6	-47.408842
1.54102E-6	-47.542406
1.541065E-6	-47.23768
1.54111E-6	-45.413622
1.541155E-6	-33.469805
1.5412E-6	-23.904056
1.541245E-6	-19.817157
1.54129E-6	-18.323873
1.541335E-6	-17.983298
1.54138E-6	-17.899492
1.541425E-6	-17.859513
1.54147E-6	-17.907532
1.541515E-6	-18.623295
1.54156E-6	-21.44905
1.541605E-6	-28.043771
1.54165E-6	-38.535619
1.541695E-6	-44.754741
1.54174E-6	-46.903698
1.541785E-6	-47.351822
1.54183E-6	-47.302536
1.541875E-6	-46.639407
1.54192E-6	-42.248995
1.541965E-6	-28.309136
1.54201E-6	-21.446626
1.542055E-6	-18.732194
1.5421E-6	-17.910215
1.542145E-6	-17.723704
1.54219E-6	-17.68021
1.542235E-6	-17.654827
1.54228E-6	-17.796304
1.542325E-6	-19.136402
1.54237E-6	-23.015515
1.542415E-6	-31.330042
1.54246E-6	-40.88576
1.542505E-6	-45.627252
1.54255E-6	-46.996219
1.542595E-6	-47.2262
1.54264E-6	-47.061956
1.542685E-6	-45.909126
1.54273E-6	-36.560009
1.542775E-6	-25.179844
1.54282E-6	-20.311903
1.542865E-6	-18.428456
1.54291E-6	-17.980569
1.542955E-6	-17.918275
1.543E-6	-17.880789
1.543045E-6	-17.870138
1.54309E-6	-18.213108
1.543135E-6	-20.281677
1.54318E-6	-25.347659
1.543225E-6	-35.281218
1.54327E-6	-43.142583
1.543315E-6	-46.276404
1.54336E-6	-47.026773
1.543405E-6	-47.110804
1.54345E-6	-46.728455
1.543495E-6	-44.315636
1.54354E-6	-31.618438
1.543585E-6	-22.992098
1.54363E-6	-19.419538
1.543675E-6	-18.193008
1.54372E-6	-17.931741
1.543765E-6	-17.89414
1.54381E-6	-17.85421
1.543855E-6	-17.886124
1.5439E-6	-18.722475
1.543945E-6	-21.584528
1.54399E-6	-28.303256
1.544035E-6	-38.771291
1.54408E-6	-44.586704
1.544125E-6	-46.591595
1.54417E-6	-47.020208
1.544215E-6	-46.987529
1.54426E-6	-46.324577
1.544305E-6	-41.550881
1.54435E-6	-28.035475
1.544395E-6	-21.427278
1.54444E-6	-18.807441
1.544485E-6	-18.091083
1.54453E-6	-17.966951
1.544575E-6	-17.920965
1.54462E-6	-17.910215
1.544665E-6	-18.054857
1.54471E-6	-19.314431
1.544755E-6	-23.254144
1.5448E-6	-31.66343
1.544845E-6	-41.040805
1.54489E-6	-45.62408
1.544935E-6	-46.775739
1.54498E-6	-46.998395
1.545025E-6	-46.821455
1.54507E-6	-45.670307
1.545115E-6	-35.958508
1.54516E-6	-24.958011
1.545205E-6	-20.235125
1.54525E-6	-18.404328
1.545295E-6	-18.016179
1.54534E-6	-17.93714
1.545385E-6	-17.918275
1.54543E-6	-17.939841
1.545475E-6	-18.33866
1.54552E-6	-20.44649
1.545565E-6	-25.477534
1.54561E-6	-35.282683
1.545655E-6	-43.114022
1.5457E-6	-46.167233
1.545745E-6	-46.865546
1.54579E-6	-46.970201
1.545835E-6	-46.657474
1.54588E-6	-44.718549
1.545925E-6	-32.435921
1.54597E-6	-23.215727
1.546015E-6	-19.496202
1.54606E-6	-18.247782
1.546105E-6	-17.999707
1.54615E-6	-17.947956
1.546195E-6	-17.923656
1.54624E-6	-17.972393
1.546285E-6	-18.674202
1.54633E-6	-21.351331
1.546375E-6	-27.788467
1.54642E-6	-38.068754
1.546465E-6	-44.366376
1.54651E-6	-46.453154
1.546555E-6	-46.933606
1.5466E-6	-46.931463
1.546645E-6	-46.399749
1.54669E-6	-42.473371
1.546735E-6	-29.179331
1.54678E-6	-21.92465
1.546825E-6	-19.097419
1.54687E-6	-18.265224
1.546915E-6	-18.110715
1.54696E-6	-18.065971
1.547005E-6	-18.06319
1.54705E-6	-18.204482
1.547095E-6	-19.318141
1.54714E-6	-22.798407
1.547185E-6	-30.207249
1.54723E-6	-40.086853
1.547275E-6	-45.273898
1.54732E-6	-46.677636
1.547365E-6	-46.961562
1.54741E-6	-46.863437
1.547455E-6	-45.999804
1.5475E-6	-39.442395
1.547545E-6	-26.298572
1.54759E-6	-20.835461
1.547635E-6	-18.642315
1.54768E-6	-18.096683
1.547725E-6	-18.01893
1.54777E-6	-17.999707
1.547815E-6	-18.007935
1.54786E-6	-18.241984
1.547905E-6	-19.821323
1.54795E-6	-24.093811
1.547995E-6	-33.018995
1.54804E-6	-41.790764
1.548085E-6	-45.772461
1.54813E-6	-46.804776
1.548175E-6	-46.968039
1.54822E-6	-46.761294
1.548265E-6	-45.418156
1.54831E-6	-35.068209
1.548355E-6	-24.668637
1.5484E-6	-20.164188
1.548445E-6	-18.452718
1.54849E-6	-18.06319
1.548535E-6	-18.005191
1.54858E-6	-17.988761
1.548625E-6	-18.016179
1.54867E-6	-18.449678
1.548715E-6	-20.588863
1.54876E-6	-26.003263
1.548805E-6	-35.76918
1.54885E-6	-43.264262
1.548895E-6	-46.210573
1.54894E-6	-46.880343
1.548985E-6	-46.944337
1.54903E-6	-46.609463
1.549075E-6	-44.506288
1.54912E-6	-32.515019
1.549165E-6	-23.355461
1.54921E-6	-19.550685
1.549255E-6	-18.184422
1.5493E-6	-17.939841
1.549345E-6	-17.90485
1.54939E-6	-17.907532
1.549435E-6	-17.950665
1.54948E-6	-18.620133
1.549525E-6	-21.238399
1.54957E-6	-27.401673
1.549615E-6	-37.723704
1.54966E-6	-44.086014
1.549705E-6	-46.382722
1.54975E-6	-46.882461
1.549795E-6	-46.882461
1.54984E-6	-46.394066
1.549885E-6	-43.183066
1.54993E-6	-29.93534
1.549975E-6	-22.245352
1.55002E-6	-19.122186
1.550065E-6	-18.17015
1.55011E-6	-18.007935
1.550155E-6	-17.980569
1.5502E-6	-17.953375
1.550245E-6	-18.01893
1.55029E-6	-18.804142
1.550335E-6	-21.752886
1.55038E-6	-28.703101
1.550425E-6	-39.172146
1.55047E-6	-44.600462
1.550515E-6	-46.495581
1.55056E-6	-46.855008
1.550605E-6	-46.815193
1.55065E-6	-46.158259
1.550695E-6	-41.327093
1.55074E-6	-27.670039
1.550785E-6	-21.429692
1.55083E-6	-18.817353
1.550875E-6	-18.079904
1.55092E-6	-17.964232
1.550965E-6	-17.915586
1.55101E-6	-17.899492
1.551055E-6	-18.032713
1.5511E-6	-19.197344
1.551145E-6	-22.764622
1.55119E-6	-30.468204
1.551235E-6	-40.224136
1.55128E-6	-45.244741
1.551325E-6	-46.567884
1.55137E-6	-46.823545
1.551415E-6	-46.73869
1.55146E-6	-45.934598
1.551505E-6	-39.586073
1.55155E-6	-26.645421
1.551595E-6	-20.975619
1.55164E-6	-18.674202
1.551685E-6	-18.10229
1.55173E-6	-17.996968
1.551775E-6	-17.953375
1.55182E-6	-17.92635
1.551865E-6	-18.138916
1.55191E-6	-19.625735
1.551955E-6	-23.76544
1.552E-6	-32.123979
1.552045E-6	-41.126078
1.55209E-6	-45.50059
1.552135E-6	-46.587634
1.55218E-6	-46.777807
1.552225E-6	-46.615435
1.55227E-6	-45.516029
1.552315E-6	-36.165437
1.55236E-6	-25.058454
1.552405E-6	-20.263181
1.55245E-6	-18.428456
1.552495E-6	-18.038238
1.55254E-6	-17.969671
1.552585E-6	-17.90485
1.55263E-6	-17.896815
1.552675E-6	-18.213108
1.55272E-6	-20.035759
1.552765E-6	-24.937656
1.55281E-6	-34.107208
1.552855E-6	-42.409368
1.5529E-6	-45.808707
1.552945E-6	-46.599527
1.55299E-6	-46.724367
1.553035E-6	-46.499459
1.55308E-6	-45.021033
1.553125E-6	-34.273607
1.55317E-6	-23.968556
1.553215E-6	-19.755143
1.55326E-6	-18.207355
1.553305E-6	-17.910215
1.55335E-6	-17.840982
1.553395E-6	-17.780644
1.55344E-6	-17.77804
1.553485E-6	-18.224635
1.55353E-6	-20.3711
1.553575E-6	-25.517576
1.55362E-6	-35.185574
1.553665E-6	-42.781894
1.55371E-6	-45.855281
1.553755E-6	-46.569855
1.5538E-6	-46.66956
1.553845E-6	-46.394066
1.55389E-6	-44.613006
1.553935E-6	-32.636035
1.55398E-6	-23.501785
1.554025E-6	-19.617774
1.55407E-6	-18.291518
1.554115E-6	-17.988761
1.55416E-6	-17.90217
1.554205E-6	-17.899492
1.55425E-6	-17.89414
1.554295E-6	-18.365404
1.55434E-6	-20.642913
1.554385E-6	-26.243364
1.55443E-6	-36.236056
1.554475E-6	-43.34419
1.55452E-6	-45.970512
1.554565E-6	-46.552149
1.55461E-6	-46.603498
1.554655E-6	-46.247023
1.5547E-6	-43.837346
1.554745E-6	-31.241866
1.55479E-6	-22.788492
1.554835E-6	-19.389247
1.55488E-6	-18.265224
1.554925E-6	-17.991495
1.55497E-6	-17.93714
1.555015E-6	-17.942545
1.55506E-6	-17.969671
1.555105E-6	-18.535619
1.55515E-6	-21.002342
1.555195E-6	-26.952941
1.55524E-6	-37.295541
1.555285E-6	-43.760275
1.55533E-6	-46.008457
1.555375E-6	-46.524748
1.55542E-6	-46.532559
1.555465E-6	-46.083593
1.55551E-6	-43.023348
1.555555E-6	-29.863203
1.5556E-6	-22.246809
1.555645E-6	-19.111554
1.55569E-6	-18.167302
1.555735E-6	-17.9588
1.55578E-6	-17.910215
1.555825E-6	-17.90217
1.55587E-6	-17.953375
1.555915E-6	-18.576105
1.55596E-6	-21.163386
1.556005E-6	-27.503126
1.55605E-6	-37.883456
1.556095E-6	-43.9545
1.55614E-6	-46.043242
1.556185E-6	-46.495581
1.55623E-6	-46.501399
1.556275E-6	-46.050233
1.55632E-6	-42.918341
1.556365E-6	-29.562449
1.55641E-6	-22.174557
1.556455E-6	-19.041335
1.5565E-6	-18.046539
1.556545E-6	-17.856861
1.55659E-6	-17.846268
1.556635E-6	-17.85421
1.55668E-6	-17.9129
1.556725E-6	-18.677403
1.55677E-6	-21.46241
1.556815E-6	-28.17015
1.55686E-6	-38.452718
1.556905E-6	-44.110564
1.55695E-6	-46.092415
1.556995E-6	-46.491707
1.55704E-6	-46.485902
1.557085E-6	-46.010189
1.55713E-6	-42.748237
1.557175E-6	-29.3968
1.55722E-6	-21.911141
1.557265E-6	-18.887375
1.55731E-6	-17.9129
1.557355E-6	-17.744323
1.5574E-6	-17.723704
1.557445E-6	-17.71343
1.55749E-6	-17.785858
1.557535E-6	-18.613816
1.55758E-6	-21.527976
1.557625E-6	-28.489367
1.55767E-6	-38.827287
1.557715E-6	-44.350973
1.55776E-6	-46.127882
1.557805E-6	-46.524748
1.55785E-6	-46.528652
1.557895E-6	-46.044989
1.55794E-6	-42.590849
1.557985E-6	-29.321855
1.55803E-6	-22.070483
1.558075E-6	-18.975663
1.55812E-6	-17.966951
1.558165E-6	-17.785858
1.55821E-6	-17.770236
1.558255E-6	-17.767637
1.5583E-6	-17.848914
1.558345E-6	-18.716007
1.55839E-6	-21.7399
1.558435E-6	-28.735439
1.55848E-6	-39.027427
1.558525E-6	-44.408118
1.55857E-6	-46.223296
1.558615E-6	-46.611453
1.55866E-6	-46.597542
1.558705E-6	-46.106567
1.55875E-6	-42.420728
1.558795E-6	-29.226321
1.55884E-6	-21.889615
1.558885E-6	-18.814046
1.55893E-6	-17.891466
1.558975E-6	-17.731424
1.55902E-6	-17.734001
1.559065E-6	-17.759852
1.55911E-6	-17.840982
1.559155E-6	-18.690233
1.5592E-6	-21.595802
1.559245E-6	-28.377344
1.55929E-6	-38.787685
1.559335E-6	-44.418917
1.55938E-6	-46.324577
1.559425E-6	-46.732546
1.55947E-6	-46.73869
1.559515E-6	-46.226937
1.55956E-6	-42.383728
1.559605E-6	-28.965384
1.55965E-6	-21.840903
1.559695E-6	-18.884015
1.55974E-6	-18.029953
1.559785E-6	-17.9129
1.55983E-6	-17.929045
1.559875E-6	-17.961515
1.55992E-6	-18.074325
1.559965E-6	-18.90759
1.56001E-6	-21.878892
1.560055E-6	-28.797552
1.5601E-6	-39.027427
1.560145E-6	-44.686488
1.56019E-6	-46.495581
1.560235E-6	-46.922901
1.56028E-6	-46.92932
1.560325E-6	-46.445485
1.56037E-6	-43.163227
1.560415E-6	-29.763361
1.56046E-6	-22.015565
1.560505E-6	-18.850556
1.56055E-6	-17.891466
1.560595E-6	-17.74174
1.56064E-6	-17.754669
1.560685E-6	-17.806775
1.56073E-6	-17.92635
1.560775E-6	-18.784402
1.56082E-6	-21.777011
1.560865E-6	-28.768019
1.56091E-6	-39.093893
1.560955E-6	-44.689045
1.561E-6	-46.699923
1.561045E-6	-47.146678
1.56109E-6	-47.157949
1.561135E-6	-46.651443
1.56118E-6	-43.35358
1.561225E-6	-29.833845
1.56127E-6	-21.936843
1.561315E-6	-18.800846
1.56136E-6	-17.833064
1.561405E-6	-17.710866
1.56145E-6	-17.734001
1.561495E-6	-17.780644
1.56154E-6	-17.89414
1.561585E-6	-18.648673
1.56163E-6	-21.392429
1.561675E-6	-28.071539
1.56172E-6	-38.335699
1.561765E-6	-44.600462
1.56181E-6	-46.848697
1.561855E-6	-47.399286
1.5619E-6	-47.437635
1.561945E-6	-47.024583
1.56199E-6	-44.40213
1.562035E-6	-31.483137
1.56208E-6	-22.640819
1.562125E-6	-19.051796
1.56217E-6	-17.864822
1.562215E-6	-17.68021
1.56226E-6	-17.728849
1.562305E-6	-17.796304
1.56235E-6	-17.888795
1.562395E-6	-18.458805
1.56244E-6	-20.774302
1.562485E-6	-26.470461
1.56253E-6	-36.362001
1.562575E-6	-43.862639
1.56262E-6	-46.895191
1.562665E-6	-47.642191
1.56271E-6	-47.734001
1.562755E-6	-47.389752
1.5628E-6	-45.244741
1.562845E-6	-32.834124
1.56289E-6	-23.139897
1.562935E-6	-19.132843
1.56298E-6	-17.762445
1.563025E-6	-17.542406
1.56307E-6	-17.577071
1.563115E-6	-17.657359
1.56316E-6	-17.775437
1.563205E-6	-18.262312
1.56325E-6	-20.510982
1.563295E-6	-25.800443
1.56334E-6	-36.017127
1.563385E-6	-43.653212
1.56343E-6	-47.037737
1.563475E-6	-47.94525
