Wavelength (nm)	Power (dBm)
1.525E-6	-49.685915
1.525045E-6	-49.578184
1.52509E-6	-49.710223
1.525135E-6	-50.222764
1.52518E-6	-50.750491
1.525225E-6	-50.940423
1.52527E-6	-50.909256
1.525315E-6	-50.837567
1.52536E-6	-50.766523
1.525405E-6	-50.687456
1.52545E-6	-50.445047
1.525495E-6	-49.677843
1.52554E-6	-48.635966
1.525585E-6	-47.975117
1.52563E-6	-47.682756
1.525675E-6	-47.4958
1.52572E-6	-47.32359
1.525765E-6	-47.126462
1.52581E-6	-46.991872
1.525855E-6	-47.157949
1.5259E-6	-47.93444
1.525945E-6	-49.037854
1.52599E-6	-49.633711
1.526035E-6	-49.726504
1.52608E-6	-49.681877
1.526125E-6	-49.625735
1.52617E-6	-49.554602
1.526215E-6	-49.336741
1.52626E-6	-48.335699
1.526305E-6	-46.842395
1.52635E-6	-45.699249
1.526395E-6	-45.356595
1.52644E-6	-45.164127
1.526485E-6	-45.025175
1.52653E-6	-44.895891
1.526575E-6	-44.803032
1.52662E-6	-44.970269
1.526665E-6	-45.888856
1.52671E-6	-47.408842
1.526755E-6	-48.551146
1.5268E-6	-48.758219
1.526845E-6	-48.758219
1.52689E-6	-48.693447
1.526935E-6	-48.651856
1.52698E-6	-48.44664
1.527025E-6	-47.157949
1.52707E-6	-45.15985
1.527115E-6	-43.808023
1.52716E-6	-43.273481
1.527205E-6	-43.065369
1.52725E-6	-42.919192
1.527295E-6	-42.865935
1.52734E-6	-42.802545
1.527385E-6	-42.881085
1.52743E-6	-43.707943
1.527475E-6	-45.625666
1.52752E-6	-47.428016
1.527565E-6	-48.052082
1.52761E-6	-48.130437
1.527655E-6	-48.074325
1.5277E-6	-48.041003
1.527745E-6	-47.950665
1.52779E-6	-46.857113
1.527835E-6	-44.457532
1.52788E-6	-42.594794
1.527925E-6	-41.829638
1.52797E-6	-41.638659
1.528015E-6	-41.60145
1.52806E-6	-41.511338
1.528105E-6	-41.419443
1.52815E-6	-41.45694
1.528195E-6	-42.110543
1.52824E-6	-43.876401
1.528285E-6	-46.294869
1.52833E-6	-47.537477
1.528375E-6	-47.744323
1.52842E-6	-47.71343
1.528465E-6	-47.525177
1.52851E-6	-46.645421
1.528555E-6	-41.082396
1.5286E-6	-28.483238
1.528645E-6	-21.235512
1.52869E-6	-18.181564
1.528735E-6	-17.246886
1.52878E-6	-17.015836
1.528825E-6	-16.899443
1.52887E-6	-16.794383
1.528915E-6	-16.93575
1.52896E-6	-18.45576
1.529005E-6	-22.664817
1.52905E-6	-31.593921
1.529095E-6	-40.955008
1.52914E-6	-45.780672
1.529185E-6	-47.139929
1.52923E-6	-47.384992
1.529275E-6	-47.035542
1.52932E-6	-44.833324
1.529365E-6	-32.481053
1.52941E-6	-22.849163
1.529455E-6	-18.982529
1.5295E-6	-17.488487
1.529545E-6	-17.142177
1.52959E-6	-17.033348
1.529635E-6	-16.961562
1.52968E-6	-16.985359
1.529725E-6	-17.907532
1.52977E-6	-20.973989
1.529815E-6	-28.198741
1.52986E-6	-38.78112
1.529905E-6	-44.769042
1.52995E-6	-46.882461
1.529995E-6	-47.344747
1.53004E-6	-47.219327
1.530085E-6	-46.110112
1.53013E-6	-37.269987
1.530175E-6	-25.205687
1.53022E-6	-20.147083
1.530265E-6	-18.04931
1.53031E-6	-17.483618
1.530355E-6	-17.361273
1.5304E-6	-17.304871
1.530445E-6	-17.269987
1.53049E-6	-17.662426
1.530535E-6	-19.755143
1.53058E-6	-24.93495
1.530625E-6	-34.881166
1.53067E-6	-43.03731
1.530715E-6	-46.414941
1.53076E-6	-47.256112
1.530805E-6	-47.32359
1.53085E-6	-46.720284
1.530895E-6	-42.51192
1.53094E-6	-28.576105
1.530985E-6	-21.576404
1.53103E-6	-18.661419
1.531075E-6	-17.79369
1.53112E-6	-17.619539
1.531165E-6	-17.559704
1.53121E-6	-17.520267
1.531255E-6	-17.710866
1.5313E-6	-19.108016
1.531345E-6	-22.987775
1.53139E-6	-31.185583
1.531435E-6	-40.875654
1.53148E-6	-45.793842
1.531525E-6	-47.155693
1.53157E-6	-47.394516
1.531615E-6	-47.10411
1.53166E-6	-45.237482
1.531705E-6	-33.190303
1.53175E-6	-23.491099
1.531795E-6	-19.430951
1.53184E-6	-17.9588
1.531885E-6	-17.617029
1.53193E-6	-17.554755
1.531975E-6	-17.535014
1.53202E-6	-17.579558
1.532065E-6	-18.303256
1.53211E-6	-21.010007
1.532155E-6	-27.286231
1.5322E-6	-37.867479
1.532245E-6	-44.30509
1.53229E-6	-46.838199
1.532335E-6	-47.406451
1.53238E-6	-47.356545
1.532425E-6	-46.414941
1.53247E-6	-39.710223
1.532515E-6	-25.985995
1.53256E-6	-20.504148
1.532605E-6	-18.297383
1.53265E-6	-17.746907
1.532695E-6	-17.672579
1.53274E-6	-17.677665
1.532785E-6	-17.746907
1.53283E-6	-18.121974
1.532875E-6	-19.995659
1.53292E-6	-24.654662
1.532965E-6	-34.018664
1.53301E-6	-42.67124
1.533055E-6	-46.462761
1.5331E-6	-47.454519
1.533145E-6	-47.567139
1.53319E-6	-47.14893
1.533235E-6	-44.422523
1.53328E-6	-31.199872
1.533325E-6	-22.557853
1.53337E-6	-18.931295
1.533415E-6	-17.726276
1.53346E-6	-17.539941
1.533505E-6	-17.564659
1.53355E-6	-17.637147
1.533595E-6	-17.804155
1.53364E-6	-18.820662
1.533685E-6	-22.096445
1.53373E-6	-29.408154
1.533775E-6	-39.211808
1.53382E-6	-45.404567
1.533865E-6	-47.351822
1.53391E-6	-47.754669
1.533955E-6	-47.602002
1.534E-6	-46.311555
1.534045E-6	-37.101882
1.53409E-6	-24.979828
1.534135E-6	-19.867413
1.53418E-6	-17.878124
1.534225E-6	-17.442452
1.53427E-6	-17.440043
1.534315E-6	-17.512913
1.53436E-6	-17.629592
1.534405E-6	-18.119156
1.53445E-6	-20.25028
1.534495E-6	-25.285616
1.53454E-6	-34.918745
1.534585E-6	-43.29847
1.53463E-6	-46.961562
1.534675E-6	-47.864822
1.53472E-6	-47.950665
1.534765E-6	-47.351822
1.53481E-6	-43.742761
1.534855E-6	-29.605859
1.5349E-6	-21.717914
1.534945E-6	-18.443604
1.53499E-6	-17.476325
1.535035E-6	-17.392133
1.53508E-6	-17.469044
1.535125E-6	-17.567139
1.53517E-6	-17.838341
1.535215E-6	-19.122186
1.53526E-6	-22.808345
1.535305E-6	-30.475951
1.53535E-6	-40.357404
1.535395E-6	-46.122543
1.53544E-6	-47.883456
1.535485E-6	-48.210231
1.53553E-6	-47.969671
1.535575E-6	-46.360122
1.53562E-6	-36.051982
1.535665E-6	-24.586704
1.53571E-6	-19.538952
1.535755E-6	-17.552282
1.5358E-6	-17.196493
1.535845E-6	-17.217038
1.53589E-6	-17.307206
1.535935E-6	-17.418418
1.53598E-6	-17.980569
1.536025E-6	-20.277509
1.53607E-6	-25.909126
1.536115E-6	-36.26904
1.53616E-6	-44.109445
1.536205E-6	-47.444863
1.53625E-6	-48.294449
1.536295E-6	-48.33866
1.53634E-6	-47.554755
1.536385E-6	-43.213906
1.53643E-6	-29.072794
1.536475E-6	-21.144692
1.53652E-6	-18.005191
1.536565E-6	-17.061956
1.53661E-6	-16.968039
1.536655E-6	-17.011469
1.5367E-6	-17.061956
1.536745E-6	-17.23998
1.53679E-6	-18.541823
1.536835E-6	-22.208366
1.53688E-6	-30.089512
1.536925E-6	-40.274269
1.53697E-6	-46.172627
1.537015E-6	-48.105097
1.53706E-6	-48.492436
1.537105E-6	-48.215987
1.53715E-6	-46.443569
1.537195E-6	-35.821963
1.53724E-6	-24.077122
1.537285E-6	-19.115095
1.53733E-6	-17.166988
1.537375E-6	-16.761294
1.53742E-6	-16.7305
1.537465E-6	-16.746896
1.53751E-6	-16.786087
1.537555E-6	-17.304871
1.5376E-6	-19.570309
1.537645E-6	-25.16698
1.53769E-6	-35.287083
1.537735E-6	-43.504704
1.53778E-6	-47.358908
1.537825E-6	-48.398317
1.53787E-6	-48.498578
1.537915E-6	-47.77804
1.53796E-6	-43.827899
1.538005E-6	-29.586073
1.53805E-6	-21.247072
1.538095E-6	-17.851562
1.53814E-6	-16.771607
1.538185E-6	-16.583677
1.53823E-6	-16.550186
1.538275E-6	-16.552149
1.53832E-6	-16.671577
1.538365E-6	-17.801536
1.53841E-6	-21.288943
1.538455E-6	-29.215432
1.5385E-6	-39.698052
1.538545E-6	-45.587763
1.53859E-6	-47.972393
1.538635E-6	-48.51089
1.53868E-6	-48.306195
1.538725E-6	-46.775739
1.53877E-6	-37.035542
1.538815E-6	-24.754741
1.53886E-6	-19.41574
1.538905E-6	-17.309543
1.53895E-6	-16.78816
1.538995E-6	-16.685727
1.53904E-6	-16.653452
1.539085E-6	-16.651443
1.53913E-6	-17.024583
1.539175E-6	-19.048306
1.53922E-6	-24.217047
1.539265E-6	-34.143137
1.53931E-6	-42.826624
1.539355E-6	-47.055338
1.5394E-6	-48.259402
1.539445E-6	-48.428456
1.53949E-6	-47.78325
1.539535E-6	-44.579219
1.53958E-6	-30.510494
1.539625E-6	-21.802587
1.53967E-6	-18.224635
1.539715E-6	-16.994045
1.53976E-6	-16.736641
1.539805E-6	-16.677636
1.53985E-6	-16.641411
1.539895E-6	-16.703988
1.53994E-6	-17.62205
1.539985E-6	-20.832829
1.54003E-6	-28.452718
1.540075E-6	-39.104481
1.54012E-6	-45.252012
1.540165E-6	-47.695511
1.54021E-6	-48.300318
1.540255E-6	-48.201611
1.5403E-6	-47.009287
1.540345E-6	-39.854795
1.54039E-6	-25.851937
1.540435E-6	-19.952488
1.54048E-6	-17.520267
1.540525E-6	-16.834007
1.54057E-6	-16.697892
1.540615E-6	-16.631402
1.54066E-6	-16.605486
1.540705E-6	-16.890944
1.54075E-6	-18.610661
1.540795E-6	-23.213906
1.54084E-6	-32.399547
1.540885E-6	-41.816421
1.54093E-6	-46.509168
1.540975E-6	-47.966951
1.54102E-6	-48.198741
1.541065E-6	-47.809397
1.54111E-6	-45.512937
1.541155E-6	-33.243133
1.5412E-6	-22.986047
1.541245E-6	-18.823973
1.54129E-6	-17.221617
1.541335E-6	-16.850799
1.54138E-6	-16.751005
1.541425E-6	-16.716204
1.54147E-6	-16.736641
1.541515E-6	-17.444863
1.54156E-6	-20.180003
1.541605E-6	-26.487837
1.54165E-6	-37.07301
1.541695E-6	-44.162346
1.54174E-6	-47.251497
1.541785E-6	-47.999707
1.54183E-6	-47.988761
1.541875E-6	-47.07301
1.54192E-6	-42.061398
1.541965E-6	-27.354183
1.54201E-6	-20.492945
1.542055E-6	-17.634627
1.5421E-6	-16.781945
1.542145E-6	-16.599527
1.54219E-6	-16.554113
1.542235E-6	-16.513058
1.54228E-6	-16.637404
1.542325E-6	-17.9129
1.54237E-6	-21.63233
1.542415E-6	-29.685915
1.54246E-6	-39.637705
1.542505E-6	-45.52222
1.54255E-6	-47.503126
1.542595E-6	-47.918275
1.54264E-6	-47.703182
1.542685E-6	-46.160052
1.54273E-6	-36.337639
1.542775E-6	-24.464811
1.54282E-6	-19.385475
1.542865E-6	-17.375489
1.54291E-6	-16.899443
1.542955E-6	-16.806857
1.543E-6	-16.773673
1.543045E-6	-16.742791
1.54309E-6	-17.061956
1.543135E-6	-19.010104
1.54318E-6	-23.894463
1.543225E-6	-33.681505
1.54327E-6	-42.31214
1.543315E-6	-46.491707
1.54336E-6	-47.647241
1.543405E-6	-47.798919
1.54345E-6	-47.290884
1.543495E-6	-44.42132
1.54354E-6	-31.010007
1.543585E-6	-22.118316
1.54363E-6	-18.377344
1.543675E-6	-17.086311
1.54372E-6	-16.808939
1.543765E-6	-16.761294
1.54381E-6	-16.7305
1.543855E-6	-16.773673
1.5439E-6	-17.530093
1.543945E-6	-20.322649
1.54399E-6	-26.933606
1.544035E-6	-37.539941
1.54408E-6	-44.209027
1.544125E-6	-47.026773
1.54417E-6	-47.698066
1.544215E-6	-47.675121
1.54426E-6	-46.769543
1.544305E-6	-41.398417
1.54435E-6	-27.092978
1.544395E-6	-20.463369
1.54444E-6	-17.765041
1.544485E-6	-16.987529
1.54453E-6	-16.857113
1.544575E-6	-16.829819
1.54462E-6	-16.79646
1.544665E-6	-16.918626
1.54471E-6	-18.136088
1.544755E-6	-21.871535
1.5448E-6	-30.050673
1.544845E-6	-39.93534
1.54489E-6	-45.633604
1.544935E-6	-47.340036
1.54498E-6	-47.708303
1.545025E-6	-47.473897
1.54507E-6	-45.895602
1.545115E-6	-35.633604
1.54516E-6	-24.090468
1.545205E-6	-19.226321
1.54525E-6	-17.290884
1.545295E-6	-16.857113
1.54534E-6	-16.769543
1.545385E-6	-16.744843
1.54543E-6	-16.759234
1.545475E-6	-17.126462
1.54552E-6	-19.129288
1.545565E-6	-23.995717
1.54561E-6	-33.610118
1.545655E-6	-42.28486
1.5457E-6	-46.360122
1.545745E-6	-47.512913
1.54579E-6	-47.675121
1.545835E-6	-47.249191
1.54588E-6	-44.762535
1.545925E-6	-32.0607
1.54597E-6	-22.315839
1.546015E-6	-18.416375
1.54606E-6	-17.095202
1.546105E-6	-16.836102
1.54615E-6	-16.781945
1.546195E-6	-16.765416
1.54624E-6	-16.802695
1.546285E-6	-17.437635
1.54633E-6	-19.978339
1.546375E-6	-26.247023
1.54642E-6	-36.563945
1.546465E-6	-43.89127
1.54651E-6	-46.823545
1.546555E-6	-47.594508
1.5466E-6	-47.617029
1.546645E-6	-46.893067
1.54669E-6	-42.263598
1.546735E-6	-28.458805
1.54678E-6	-20.951222
1.546825E-6	-17.977842
1.54687E-6	-17.050931
1.546915E-6	-16.8867
1.54696E-6	-16.844495
1.547005E-6	-16.831912
1.54705E-6	-16.957249
1.547095E-6	-18.007935
1.54714E-6	-21.36142
1.547185E-6	-28.807441
1.54723E-6	-39.329291
1.547275E-6	-45.117314
1.54732E-6	-47.171514
1.547365E-6	-47.639669
1.54741E-6	-47.517814
1.547455E-6	-46.38839
1.5475E-6	-39.248181
1.547545E-6	-25.673513
1.54759E-6	-19.884296
1.547635E-6	-17.544873
1.54768E-6	-16.959405
1.547725E-6	-16.846595
1.54777E-6	-16.823545
1.547815E-6	-16.836102
1.54786E-6	-17.037737
1.547905E-6	-18.480176
1.54795E-6	-22.556288
1.547995E-6	-31.298888
1.54804E-6	-40.750491
1.548085E-6	-45.775743
1.54813E-6	-47.370745
1.548175E-6	-47.647241
1.54822E-6	-47.375489
1.548265E-6	-45.617742
1.54831E-6	-34.655931
1.548355E-6	-23.764406
1.5484E-6	-19.154237
1.548445E-6	-17.311881
1.54849E-6	-16.878226
1.548535E-6	-16.819367
1.54858E-6	-16.811023
1.548625E-6	-16.819367
1.54867E-6	-17.20105
1.548715E-6	-19.226321
1.54876E-6	-24.358075
1.548805E-6	-34.086014
1.54885E-6	-42.456517
1.548895E-6	-46.409238
1.54894E-6	-47.481185
1.548985E-6	-47.612014
1.54903E-6	-47.16925
1.549075E-6	-44.625587
1.54912E-6	-32.173124
1.549165E-6	-22.542228
1.54921E-6	-18.572978
1.549255E-6	-17.113037
1.5493E-6	-16.838199
1.549345E-6	-16.804776
1.54939E-6	-16.800616
1.549435E-6	-16.850799
1.54948E-6	-17.476325
1.549525E-6	-19.982663
1.54957E-6	-25.912514
1.549615E-6	-36.140364
1.54966E-6	-43.506651
1.549705E-6	-46.722325
1.54975E-6	-47.503126
1.549795E-6	-47.549811
1.54984E-6	-46.882461
1.549885E-6	-43.130957
1.54993E-6	-29.24453
1.549975E-6	-21.224559
1.55002E-6	-17.975117
1.550065E-6	-16.978856
1.55011E-6	-16.78816
1.550155E-6	-16.765416
1.5502E-6	-16.753061
1.550245E-6	-16.806857
1.55029E-6	-17.537477
1.550335E-6	-20.381045
1.55038E-6	-27.039933
1.550425E-6	-37.700623
1.55047E-6	-44.226231
1.550515E-6	-46.905828
1.55056E-6	-47.498241
1.550605E-6	-47.459355
1.55065E-6	-46.548224
1.550695E-6	-41.18102
1.55074E-6	-26.834007
1.550785E-6	-20.418663
1.55083E-6	-17.68021
1.550875E-6	-16.912222
1.55092E-6	-16.790233
1.550965E-6	-16.742791
1.55101E-6	-16.716204
1.551055E-6	-16.831912
1.5511E-6	-17.888795
1.551145E-6	-21.354889
1.55119E-6	-29.100949
1.551235E-6	-39.400581
1.55128E-6	-44.975729
1.551325E-6	-47.031155
1.55137E-6	-47.478754
1.551415E-6	-47.375489
1.55146E-6	-46.259853
1.551505E-6	-39.219058
1.55155E-6	-25.812017
1.551595E-6	-19.901244
1.55164E-6	-17.515363
1.551685E-6	-16.865546
1.55173E-6	-16.763355
1.551775E-6	-16.732546
1.55182E-6	-16.718243
1.551865E-6	-16.90157
1.55191E-6	-18.291518
1.551955E-6	-22.221384
1.552E-6	-30.410063
1.552045E-6	-39.92679
1.55209E-6	-45.446982
1.552135E-6	-47.117508
1.55218E-6	-47.440043
1.552225E-6	-47.219327
1.55227E-6	-45.704092
1.552315E-6	-35.756084
1.55236E-6	-24.262004
1.552405E-6	-19.211808
1.55245E-6	-17.246886
1.552495E-6	-16.813107
1.55254E-6	-16.736641
1.552585E-6	-16.679657
1.55263E-6	-16.679657
1.552675E-6	-16.968039
1.55272E-6	-18.667805
1.552765E-6	-23.301255
1.55281E-6	-32.176707
1.552855E-6	-41.374512
1.5529E-6	-45.873715
1.552945E-6	-47.157949
1.55299E-6	-47.387371
1.553035E-6	-47.059749
1.55308E-6	-45.168408
1.553125E-6	-33.846813
1.55317E-6	-23.249553
1.553215E-6	-18.787685
1.55326E-6	-17.126462
1.553305E-6	-16.784016
1.55335E-6	-16.693833
1.553395E-6	-16.655462
1.55344E-6	-16.68168
1.553485E-6	-17.077439
1.55353E-6	-19.079815
1.553575E-6	-23.957739
1.55362E-6	-33.459198
1.553665E-6	-41.988708
1.55371E-6	-46.051982
1.553755E-6	-47.16925
1.5538E-6	-47.337683
1.553845E-6	-46.937895
1.55389E-6	-44.633153
1.553935E-6	-32.153827
1.55398E-6	-22.48952
1.554025E-6	-18.520147
1.55407E-6	-17.110804
1.554115E-6	-16.773673
1.55416E-6	-16.679657
1.554205E-6	-16.667543
1.55425E-6	-16.68168
1.554295E-6	-17.119745
1.55434E-6	-19.310724
1.554385E-6	-24.664821
1.55443E-6	-34.658469
1.554475E-6	-42.701066
1.55452E-6	-46.214204
1.554565E-6	-47.160207
1.55461E-6	-47.272304
1.554655E-6	-46.759234
1.5547E-6	-43.840499
1.554745E-6	-30.710923
1.55479E-6	-21.805877
1.554835E-6	-18.262312
1.55488E-6	-17.050931
1.554925E-6	-16.773673
1.55497E-6	-16.699923
1.555015E-6	-16.699923
1.55506E-6	-16.712128
1.555105E-6	-17.2262
1.55515E-6	-19.605859
1.555195E-6	-25.358086
1.55524E-6	-35.741399
1.555285E-6	-43.066248
1.55533E-6	-46.324577
1.555375E-6	-47.153437
1.55542E-6	-47.191941
1.555465E-6	-46.571827
1.55551E-6	-42.90052
1.555555E-6	-29.197344
1.5556E-6	-21.205027
1.555645E-6	-17.969671
1.55569E-6	-16.961562
1.555735E-6	-16.714166
1.55578E-6	-16.675615
1.555825E-6	-16.673596
1.55587E-6	-16.695862
1.555915E-6	-17.253804
1.55596E-6	-19.812995
1.556005E-6	-25.795491
1.55605E-6	-36.318991
1.556095E-6	-43.543813
1.55614E-6	-46.411138
1.556185E-6	-47.126462
1.55623E-6	-47.157949
1.556275E-6	-46.534514
1.55632E-6	-42.801717
1.556365E-6	-29.020489
1.55641E-6	-21.189008
1.556455E-6	-17.931741
1.5565E-6	-16.85922
1.556545E-6	-16.635403
1.55659E-6	-16.603498
1.556635E-6	-16.605486
1.55668E-6	-16.653452
1.556725E-6	-17.337683
1.55677E-6	-20.109508
1.556815E-6	-26.591595
1.55686E-6	-36.890944
1.556905E-6	-43.707943
1.55695E-6	-46.476245
1.556995E-6	-47.121983
1.55704E-6	-47.144427
1.557085E-6	-46.485902
1.55713E-6	-42.747419
1.557175E-6	-28.867253
1.55722E-6	-21.014394
1.557265E-6	-17.851562
1.55731E-6	-16.813107
1.557355E-6	-16.613443
1.5574E-6	-16.581699
1.557445E-6	-16.5738
1.55749E-6	-16.647427
1.557535E-6	-17.396901
1.55758E-6	-20.207249
1.557625E-6	-26.804776
1.55767E-6	-37.408842
1.557715E-6	-43.915809
1.55776E-6	-46.5267
1.557805E-6	-47.14893
1.55785E-6	-47.153437
1.557895E-6	-46.476245
1.55794E-6	-42.494145
1.557985E-6	-28.520147
1.55803E-6	-21.062937
1.558075E-6	-17.79369
1.55812E-6	-16.708056
1.558165E-6	-16.505282
1.55821E-6	-16.491707
1.558255E-6	-16.509168
1.5583E-6	-16.575773
1.558345E-6	-17.363639
1.55839E-6	-20.266874
1.558435E-6	-27.097427
1.55848E-6	-37.478754
1.558525E-6	-43.935111
1.55857E-6	-46.583677
1.558615E-6	-47.207895
1.55866E-6	-47.217038
1.558705E-6	-46.548224
1.55875E-6	-42.259212
1.558795E-6	-28.50473
1.55884E-6	-20.988687
1.558885E-6	-17.723704
1.55893E-6	-16.73869
1.558975E-6	-16.579723
1.55902E-6	-16.577748
1.559065E-6	-16.609463
1.55911E-6	-16.691805
1.559155E-6	-17.447275
1.5592E-6	-20.20816
1.559245E-6	-26.767479
1.55929E-6	-37.382615
1.559335E-6	-43.970723
1.55938E-6	-46.673596
1.559425E-6	-47.309543
1.55947E-6	-47.318903
1.559515E-6	-46.577748
1.55956E-6	-42.187474
1.559605E-6	-28.141746
1.55965E-6	-20.720141
1.559695E-6	-17.6675
1.55974E-6	-16.751005
1.559785E-6	-16.609463
1.55983E-6	-16.611453
1.559875E-6	-16.663512
1.55992E-6	-16.751005
1.559965E-6	-17.520267
1.56001E-6	-20.388638
1.560055E-6	-27.059749
1.5601E-6	-37.325936
1.560145E-6	-44.045038
1.56019E-6	-46.777807
1.560235E-6	-47.461776
1.56028E-6	-47.500682
1.560325E-6	-46.817279
1.56037E-6	-42.968807
1.560415E-6	-29.062282
1.56046E-6	-20.955008
1.560505E-6	-17.614521
1.56055E-6	-16.593576
1.560595E-6	-16.441655
1.56064E-6	-16.456994
1.560685E-6	-16.491707
1.56073E-6	-16.609463
1.560775E-6	-17.399286
1.56082E-6	-20.243385
1.560865E-6	-26.92718
1.56091E-6	-37.503126
1.560955E-6	-44.064924
1.561E-6	-46.90157
1.561045E-6	-47.639669
1.56109E-6	-47.677665
1.561135E-6	-46.981023
1.56118E-6	-43.079466
1.561225E-6	-29.125735
1.56127E-6	-20.913542
1.561315E-6	-17.602002
1.56136E-6	-16.585655
1.561405E-6	-16.432095
1.56145E-6	-16.441655
1.561495E-6	-16.49752
1.56154E-6	-16.605486
1.561585E-6	-17.272304
1.56163E-6	-19.897
1.561675E-6	-26.201508
1.56172E-6	-36.451236
1.561765E-6	-43.815335
1.56181E-6	-46.972363
1.561855E-6	-47.817271
1.5619E-6	-47.90485
1.561945E-6	-47.356545
1.56199E-6	-44.341522
1.562035E-6	-30.952304
1.56208E-6	-21.690266
1.562125E-6	-17.966951
1.56217E-6	-16.66956
1.562215E-6	-16.455074
1.56226E-6	-16.483969
1.562305E-6	-16.548224
1.56235E-6	-16.647427
1.562395E-6	-17.173779
1.56244E-6	-19.3968
1.562485E-6	-24.901257
1.56253E-6	-34.710833
1.562575E-6	-42.874345
1.56262E-6	-46.850799
1.562665E-6	-48.01893
1.56271E-6	-48.153086
1.562755E-6	-47.654827
1.5628E-6	-45.010006
1.562845E-6	-32.007973
1.56289E-6	-22.062794
1.562935E-6	-17.929045
1.56298E-6	-16.439741
1.563025E-6	-16.188849
1.56307E-6	-16.221476
1.563115E-6	-16.293019
1.56316E-6	-16.399749
1.563205E-6	-16.861328
1.56325E-6	-18.999743
1.563295E-6	-24.090468
1.56334E-6	-34.13863
1.563385E-6	-42.543788
1.56343E-6	-46.863437
1.563475E-6	-48.224635
