Wavelength (nm)	Power (dBm)
1.525E-6	-44.380642
1.525045E-6	-44.169146
1.52509E-6	-44.051656
1.525135E-6	-43.939413
1.52518E-6	-43.811155
1.525225E-6	-43.650192
1.52527E-6	-43.496925
1.525315E-6	-43.359224
1.52536E-6	-43.189398
1.525405E-6	-43.036436
1.52545E-6	-42.855864
1.525495E-6	-42.67365
1.52554E-6	-42.461872
1.525585E-6	-42.265793
1.52563E-6	-42.161679
1.525675E-6	-41.986649
1.52572E-6	-41.825007
1.525765E-6	-41.690907
1.52581E-6	-41.55585
1.525855E-6	-41.469105
1.5259E-6	-41.443597
1.525945E-6	-41.385851
1.52599E-6	-41.27902
1.526035E-6	-41.187866
1.52608E-6	-41.106423
1.526125E-6	-40.95555
1.52617E-6	-40.855511
1.526215E-6	-40.711435
1.52626E-6	-40.510982
1.526305E-6	-40.316572
1.52635E-6	-40.098388
1.526395E-6	-39.965395
1.52644E-6	-39.838026
1.526485E-6	-39.698052
1.52653E-6	-39.558524
1.526575E-6	-39.492337
1.52662E-6	-39.400581
1.526665E-6	-39.408154
1.52671E-6	-39.400581
1.526755E-6	-39.377942
1.5268E-6	-39.30702
1.526845E-6	-39.20457
1.52689E-6	-39.108016
1.526935E-6	-38.999743
1.52698E-6	-38.934691
1.527025E-6	-38.751699
1.52707E-6	-38.53872
1.527115E-6	-38.323873
1.52716E-6	-38.175853
1.527205E-6	-38.074325
1.52725E-6	-37.939841
1.527295E-6	-37.862167
1.52734E-6	-37.825161
1.527385E-6	-37.759852
1.52743E-6	-37.788467
1.527475E-6	-37.838341
1.52752E-6	-37.918275
1.527565E-6	-37.872798
1.52761E-6	-37.814645
1.527655E-6	-37.772835
1.5277E-6	-37.695511
1.527745E-6	-37.637147
1.52779E-6	-37.512913
1.527835E-6	-37.309543
1.52788E-6	-37.077439
1.527925E-6	-36.912222
1.52797E-6	-36.867657
1.528015E-6	-36.790233
1.52806E-6	-36.724367
1.528105E-6	-36.7305
1.52815E-6	-36.683703
1.528195E-6	-36.757175
1.52824E-6	-36.876111
1.528285E-6	-37.037737
1.52833E-6	-37.057543
1.528375E-6	-37.044329
1.52842E-6	-37.009287
1.528465E-6	-37.004927
1.52851E-6	-36.9897
1.528555E-6	-36.965879
1.5286E-6	-36.781945
1.528645E-6	-36.513058
1.52869E-6	-36.367642
1.528735E-6	-36.285627
1.52878E-6	-36.265363
1.528825E-6	-36.245193
1.52887E-6	-36.243364
1.528915E-6	-36.232406
1.52896E-6	-36.259853
1.529005E-6	-36.455074
1.52905E-6	-36.720284
1.529095E-6	-36.813107
1.52914E-6	-36.852903
1.529185E-6	-36.823545
1.52923E-6	-36.831912
1.529275E-6	-36.846595
1.52932E-6	-36.817279
1.529365E-6	-36.722325
1.52941E-6	-36.462761
1.529455E-6	-36.219657
1.5295E-6	-36.14215
1.529545E-6	-36.152883
1.52959E-6	-36.160052
1.529635E-6	-36.138579
1.52968E-6	-36.138579
1.529725E-6	-36.145725
1.52977E-6	-36.35449
1.529815E-6	-36.615435
1.52986E-6	-36.831912
1.529905E-6	-36.93575
1.52995E-6	-36.91009
1.529995E-6	-36.912222
1.53004E-6	-36.88458
1.530085E-6	-36.931463
1.53013E-6	-36.899443
1.530175E-6	-36.621416
1.53022E-6	-36.371407
1.530265E-6	-36.236056
1.53031E-6	-36.216021
1.530355E-6	-36.19427
1.5304E-6	-36.196078
1.530445E-6	-36.201508
1.53049E-6	-36.208759
1.530535E-6	-36.356366
1.53058E-6	-36.673596
1.530625E-6	-36.93575
1.53067E-6	-37.048729
1.530715E-6	-37.059749
1.53076E-6	-37.095202
1.530805E-6	-37.115272
1.53085E-6	-37.126462
1.530895E-6	-37.075224
1.53094E-6	-36.880343
1.530985E-6	-36.605486
1.53103E-6	-36.390281
1.531075E-6	-36.346993
1.53112E-6	-36.33577
1.531165E-6	-36.337639
1.53121E-6	-36.35074
1.531255E-6	-36.326441
1.5313E-6	-36.422557
1.531345E-6	-36.722325
1.53139E-6	-37.050931
1.531435E-6	-37.233085
1.53148E-6	-37.198771
1.531525E-6	-37.212464
1.53157E-6	-37.235382
1.531615E-6	-37.269987
1.53166E-6	-37.288557
1.531705E-6	-37.153437
1.53175E-6	-36.8867
1.531795E-6	-36.615435
1.53184E-6	-36.520848
1.531885E-6	-36.505282
1.53193E-6	-36.516951
1.531975E-6	-36.546263
1.53202E-6	-36.53647
1.532065E-6	-36.589614
1.53211E-6	-36.775739
1.532155E-6	-37.117508
1.5322E-6	-37.368375
1.532245E-6	-37.420815
1.53229E-6	-37.437635
1.532335E-6	-37.437635
1.53238E-6	-37.442452
1.532425E-6	-37.461776
1.53247E-6	-37.375489
1.532515E-6	-37.2262
1.53256E-6	-36.90157
1.532605E-6	-36.777807
1.53265E-6	-36.699923
1.532695E-6	-36.724367
1.53274E-6	-36.765416
1.532785E-6	-36.761294
1.53283E-6	-36.775739
1.532875E-6	-36.92504
1.53292E-6	-37.251497
1.532965E-6	-37.520267
1.53301E-6	-37.624563
1.533055E-6	-37.634627
1.5331E-6	-37.6675
1.533145E-6	-37.734001
1.53319E-6	-37.721133
1.533235E-6	-37.690404
1.53328E-6	-37.542406
1.533325E-6	-37.321246
1.53337E-6	-37.079656
1.533415E-6	-37.066374
1.53346E-6	-37.081873
1.533505E-6	-37.055338
1.53355E-6	-37.077439
1.533595E-6	-37.160207
1.53364E-6	-37.251497
1.533685E-6	-37.413627
1.53373E-6	-37.71343
1.533775E-6	-37.90217
1.53382E-6	-37.923656
1.533865E-6	-37.977842
1.53391E-6	-37.988761
1.533955E-6	-38.002448
1.534E-6	-38.021683
1.534045E-6	-37.991495
1.53409E-6	-37.796304
1.534135E-6	-37.614521
1.53418E-6	-37.473897
1.534225E-6	-37.481185
1.53427E-6	-37.552282
1.534315E-6	-37.535014
1.53436E-6	-37.577071
1.534405E-6	-37.557229
1.53445E-6	-37.700623
1.534495E-6	-37.92635
1.53454E-6	-38.158766
1.534585E-6	-38.262312
1.53463E-6	-38.320922
1.534675E-6	-38.33866
1.53472E-6	-38.317973
1.534765E-6	-38.347557
1.53481E-6	-38.362425
1.534855E-6	-38.236193
1.5349E-6	-38.054857
1.534945E-6	-37.950665
1.53499E-6	-37.90485
1.535035E-6	-37.920965
1.53508E-6	-37.939841
1.535125E-6	-37.964232
1.53517E-6	-37.983298
1.535215E-6	-38.04931
1.53526E-6	-38.184422
1.535305E-6	-38.437538
1.53535E-6	-38.554258
1.535395E-6	-38.604357
1.53544E-6	-38.616973
1.535485E-6	-38.635966
1.53553E-6	-38.588639
1.535575E-6	-38.380334
1.53562E-6	-35.144205
1.535665E-6	-24.890531
1.53571E-6	-19.833845
1.535755E-6	-17.822529
1.5358E-6	-17.430418
1.535845E-6	-17.454519
1.53589E-6	-17.554755
1.535935E-6	-17.703182
1.53598E-6	-18.297383
1.536025E-6	-20.629839
1.53607E-6	-25.944829
1.536115E-6	-34.625587
1.53616E-6	-38.173001
1.536205E-6	-38.716007
1.53625E-6	-38.807441
1.536295E-6	-38.837244
1.53634E-6	-38.850556
1.536385E-6	-38.850556
1.53643E-6	-38.774565
1.536475E-6	-38.623295
1.53652E-6	-38.507809
1.536565E-6	-38.486301
1.53661E-6	-38.501653
1.536655E-6	-38.523237
1.5367E-6	-38.544928
1.536745E-6	-38.529423
1.53679E-6	-38.551146
1.536835E-6	-38.671002
1.53688E-6	-38.830604
1.536925E-6	-38.917733
1.53697E-6	-38.975663
1.537015E-6	-38.958544
1.53706E-6	-38.941493
1.537105E-6	-38.904215
1.53715E-6	-38.71924
1.537195E-6	-35.497509
1.53724E-6	-25.188441
1.537285E-6	-20.154727
1.53733E-6	-18.088285
1.537375E-6	-17.659892
1.53742E-6	-17.604503
1.537465E-6	-17.649768
1.53751E-6	-17.700623
1.537555E-6	-18.210231
1.5376E-6	-20.480799
1.537645E-6	-25.821963
1.53769E-6	-34.534573
1.537735E-6	-38.323873
1.53778E-6	-38.900841
1.537825E-6	-38.999743
1.53787E-6	-39.020489
1.537915E-6	-39.017025
1.53796E-6	-39.0309
1.538005E-6	-38.961963
1.53805E-6	-38.820662
1.538095E-6	-38.725712
1.53814E-6	-38.699881
1.538185E-6	-38.693447
1.53823E-6	-38.716007
1.538275E-6	-38.699881
1.53832E-6	-38.699881
1.538365E-6	-38.738686
1.53841E-6	-38.823973
1.538455E-6	-38.982529
1.5385E-6	-39.069287
1.538545E-6	-39.079815
1.53859E-6	-39.08333
1.538635E-6	-39.097419
1.53868E-6	-39.065783
1.538725E-6	-38.91435
1.53877E-6	-36.259853
1.538815E-6	-26.248853
1.53886E-6	-20.708366
1.538905E-6	-18.449678
1.53895E-6	-17.93444
1.538995E-6	-17.838341
1.53904E-6	-17.833064
1.539085E-6	-17.79369
1.53913E-6	-18.164455
1.539175E-6	-20.182267
1.53922E-6	-25.141367
1.539265E-6	-33.84576
1.53931E-6	-38.329782
1.539355E-6	-39.006647
1.5394E-6	-39.143527
1.539445E-6	-39.172146
1.53949E-6	-39.193735
1.539535E-6	-39.197344
1.53958E-6	-39.115095
1.539625E-6	-38.989406
1.53967E-6	-38.8706
1.539715E-6	-38.830604
1.53976E-6	-38.843895
1.539805E-6	-38.840568
1.53985E-6	-38.837244
1.539895E-6	-38.840568
1.53994E-6	-38.863908
1.539985E-6	-38.958544
1.54003E-6	-39.111554
1.540075E-6	-39.208188
1.54012E-6	-39.24453
1.540165E-6	-39.248181
1.54021E-6	-39.262816
1.540255E-6	-39.24453
1.5403E-6	-39.104481
1.540345E-6	-37.432823
1.54039E-6	-27.316561
1.540435E-6	-21.306509
1.54048E-6	-18.745187
1.540525E-6	-18.016179
1.54057E-6	-17.880789
1.540615E-6	-17.835702
1.54066E-6	-17.801536
1.540705E-6	-18.082696
1.54075E-6	-19.817157
1.540795E-6	-24.355707
1.54084E-6	-32.787666
1.540885E-6	-38.187282
1.54093E-6	-39.122186
1.540975E-6	-39.303319
1.54102E-6	-39.351678
1.541065E-6	-39.344203
1.54111E-6	-39.34047
1.541155E-6	-39.273825
1.5412E-6	-39.143527
1.541245E-6	-38.999743
1.54129E-6	-38.941493
1.541335E-6	-38.9279
1.54138E-6	-38.910969
1.541425E-6	-38.917733
1.54147E-6	-38.931295
1.541515E-6	-38.944898
1.54156E-6	-39.04482
1.541605E-6	-39.20457
1.54165E-6	-39.34047
1.541695E-6	-39.400581
1.54174E-6	-39.393022
1.541785E-6	-39.404366
1.54183E-6	-39.400581
1.541875E-6	-39.295927
1.54192E-6	-38.368386
1.541965E-6	-29.270153
1.54201E-6	-21.986649
1.542055E-6	-19.041335
1.5421E-6	-18.121974
1.542145E-6	-17.947956
1.54219E-6	-17.891466
1.542235E-6	-17.840982
1.54228E-6	-17.980569
1.542325E-6	-19.172146
1.54237E-6	-22.76052
1.542415E-6	-30.088182
1.54246E-6	-37.508016
1.542505E-6	-39.129288
1.54255E-6	-39.393022
1.542595E-6	-39.446217
1.54264E-6	-39.438577
1.542685E-6	-39.469216
1.54273E-6	-39.434763
1.542775E-6	-39.310724
1.54282E-6	-39.115095
1.542865E-6	-38.996295
1.54291E-6	-39.003194
1.542955E-6	-39.003194
1.543E-6	-39.003194
1.543045E-6	-39.020489
1.54309E-6	-39.034376
1.543135E-6	-39.086848
1.54318E-6	-39.262816
1.543225E-6	-39.430951
1.54327E-6	-39.531148
1.543315E-6	-39.542859
1.54336E-6	-39.535048
1.543405E-6	-39.531148
1.54345E-6	-39.461536
1.543495E-6	-39.065783
1.54354E-6	-32.711594
1.543585E-6	-23.808023
1.54363E-6	-19.863203
1.543675E-6	-18.401322
1.54372E-6	-18.096683
1.543765E-6	-18.024438
1.54381E-6	-18.016179
1.543855E-6	-18.077114
1.5439E-6	-18.867253
1.543945E-6	-21.639925
1.54399E-6	-28.198741
1.544035E-6	-36.443569
1.54408E-6	-39.115095
1.544125E-6	-39.550685
1.54417E-6	-39.629721
1.544215E-6	-39.617774
1.54426E-6	-39.665762
1.544305E-6	-39.641702
1.54435E-6	-39.519468
1.544395E-6	-39.303319
1.54444E-6	-39.175737
1.544485E-6	-39.125735
1.54453E-6	-39.157813
1.544575E-6	-39.164974
1.54462E-6	-39.168559
1.544665E-6	-39.161392
1.54471E-6	-39.186527
1.544755E-6	-39.366666
1.5448E-6	-39.586073
1.544845E-6	-39.726504
1.54489E-6	-39.734667
1.544935E-6	-39.738755
1.54498E-6	-39.738755
1.545025E-6	-39.718356
1.54507E-6	-39.523358
1.545115E-6	-36.187044
1.54516E-6	-26.11366
1.545205E-6	-20.952845
1.54525E-6	-18.843895
1.545295E-6	-18.33866
1.54534E-6	-18.241984
1.545385E-6	-18.236193
1.54543E-6	-18.224635
1.545475E-6	-18.582368
1.54552E-6	-20.499761
1.545565E-6	-25.358086
1.54561E-6	-33.641143
1.545655E-6	-38.830604
1.5457E-6	-39.653715
1.545745E-6	-39.796387
1.54579E-6	-39.842212
1.545835E-6	-39.871628
1.54588E-6	-39.858997
1.545925E-6	-39.788107
1.54597E-6	-39.605859
1.546015E-6	-39.41574
1.54606E-6	-39.359166
1.546105E-6	-39.347939
1.54615E-6	-39.35542
1.546195E-6	-39.35542
1.54624E-6	-39.333014
1.546285E-6	-39.370422
1.54633E-6	-39.488475
1.546375E-6	-39.710223
1.54642E-6	-39.875846
1.546465E-6	-39.931063
1.54651E-6	-39.943906
1.546555E-6	-39.948195
1.5466E-6	-39.956786
1.546645E-6	-39.888526
1.54669E-6	-39.200955
1.546735E-6	-30.712458
1.54678E-6	-22.951634
1.546825E-6	-19.685915
1.54687E-6	-18.604357
1.546915E-6	-18.422411
1.54696E-6	-18.398317
1.547005E-6	-18.392314
1.54705E-6	-18.507809
1.547095E-6	-19.586073
1.54714E-6	-22.957637
1.547185E-6	-29.969705
1.54723E-6	-37.791078
1.547275E-6	-39.677843
1.54732E-6	-39.956786
1.547365E-6	-40.027884
1.54741E-6	-40.055949
1.547455E-6	-40.057269
1.5475E-6	-40.020024
1.547545E-6	-39.867413
1.54759E-6	-39.665762
1.547635E-6	-39.54677
1.54768E-6	-39.523358
1.547725E-6	-39.523358
1.54777E-6	-39.523358
1.547815E-6	-39.527251
1.54786E-6	-39.550685
1.547905E-6	-39.613798
1.54795E-6	-39.775716
1.547995E-6	-39.978339
1.54804E-6	-40.091729
1.548085E-6	-40.122891
1.54813E-6	-40.138107
1.548175E-6	-40.141695
1.54822E-6	-40.104612
1.548265E-6	-39.880069
1.54831E-6	-35.459177
1.548355E-6	-25.649524
1.5484E-6	-20.908721
1.548445E-6	-19.051796
1.54849E-6	-18.648673
1.548535E-6	-18.572978
1.54858E-6	-18.541823
1.548625E-6	-18.576105
1.54867E-6	-18.996295
1.548715E-6	-21.000701
1.54876E-6	-26.048484
1.548805E-6	-34.822764
1.54885E-6	-39.310724
1.548895E-6	-40.022206
1.54894E-6	-40.180908
1.548985E-6	-40.217282
1.54903E-6	-40.210438
1.549075E-6	-40.192242
1.54912E-6	-40.122444
1.549165E-6	-39.943906
1.54921E-6	-39.75925
1.549255E-6	-39.685915
1.5493E-6	-39.661743
1.549345E-6	-39.653715
1.54939E-6	-39.665762
1.549435E-6	-39.669786
1.54948E-6	-39.694003
1.549525E-6	-39.792245
1.54957E-6	-40
1.549615E-6	-40.17367
1.54966E-6	-40.24982
1.549705E-6	-40.266874
1.54975E-6	-40.261797
1.549795E-6	-40.247061
1.54984E-6	-40.178645
1.549885E-6	-39.590023
1.54993E-6	-31.371533
1.549975E-6	-23.408447
1.55002E-6	-20.013484
1.550065E-6	-18.9279
1.55011E-6	-18.696662
1.550155E-6	-18.683813
1.5502E-6	-18.690233
1.550245E-6	-18.741935
1.55029E-6	-19.50782
1.550335E-6	-22.320283
1.55038E-6	-28.790972
1.550425E-6	-37.283907
1.55047E-6	-39.75104
1.550515E-6	-40.217282
1.55056E-6	-40.294672
1.550605E-6	-40.296531
1.55065E-6	-40.307239
1.550695E-6	-40.295601
1.55074E-6	-40.178645
1.550785E-6	-39.961088
1.55083E-6	-39.804683
1.550875E-6	-39.746941
1.55092E-6	-39.738755
1.550965E-6	-39.75104
1.55101E-6	-39.763361
1.551055E-6	-39.75925
1.5511E-6	-39.788107
1.551145E-6	-39.931063
1.55119E-6	-40.152027
1.551235E-6	-40.31097
1.55128E-6	-40.368736
1.551325E-6	-40.363066
1.55137E-6	-40.35929
1.551415E-6	-40.337644
1.55146E-6	-40.19633
1.551505E-6	-38.483238
1.55155E-6	-28.052082
1.551595E-6	-22.06489
1.55164E-6	-19.558524
1.551685E-6	-18.924509
1.55173E-6	-18.804142
1.551775E-6	-18.794261
1.55182E-6	-18.784402
1.551865E-6	-18.965384
1.55191E-6	-20.433034
1.551955E-6	-24.427335
1.552E-6	-32.232262
1.552045E-6	-38.810742
1.55209E-6	-40.099277
1.552135E-6	-40.34375
1.55218E-6	-40.379149
1.552225E-6	-40.40291
1.55227E-6	-40.412928
1.552315E-6	-40.359762
1.55236E-6	-40.17774
1.552405E-6	-39.93534
1.55245E-6	-39.817157
1.552495E-6	-39.796387
1.55254E-6	-39.808837
1.552585E-6	-39.812995
1.55263E-6	-39.821323
1.552675E-6	-39.812995
1.55272E-6	-39.888526
1.552765E-6	-40.087296
1.55281E-6	-40.321713
1.552855E-6	-40.442642
1.5529E-6	-40.450824
1.552945E-6	-40.449861
1.55299E-6	-40.438796
1.553035E-6	-40.408155
1.55308E-6	-40.138107
1.553125E-6	-35.182708
1.55317E-6	-25.306199
1.553215E-6	-20.775341
1.55326E-6	-19.0309
1.553305E-6	-18.677403
1.55335E-6	-18.610661
1.553395E-6	-18.572978
1.55344E-6	-18.598063
1.553485E-6	-19.017025
1.55353E-6	-21.024279
1.553575E-6	-25.924392
1.55362E-6	-34.502613
1.553665E-6	-39.423339
1.55371E-6	-40.275657
1.553755E-6	-40.447453
1.5538E-6	-40.490513
1.553845E-6	-40.514403
1.55389E-6	-40.510982
1.553935E-6	-40.407678
1.55398E-6	-40.188159
1.554025E-6	-39.991323
1.55407E-6	-39.909743
1.554115E-6	-39.888526
1.55416E-6	-39.897
1.554205E-6	-39.871628
1.55425E-6	-39.875846
1.554295E-6	-39.901244
1.55434E-6	-40.005215
1.554385E-6	-40.2489
1.55443E-6	-40.453716
1.554475E-6	-40.530077
1.55452E-6	-40.551227
1.554565E-6	-40.556654
1.55461E-6	-40.562088
1.554655E-6	-40.500248
1.5547E-6	-40.038387
1.554745E-6	-33.092725
1.55479E-6	-24.164612
1.554835E-6	-20.430156
1.55488E-6	-19.147094
1.554925E-6	-18.884015
1.55497E-6	-18.823973
1.555015E-6	-18.804142
1.55506E-6	-18.820662
1.555105E-6	-19.366666
1.55515E-6	-21.794702
1.555195E-6	-27.612014
1.55524E-6	-36.3865
1.555285E-6	-39.796387
1.55533E-6	-40.447935
1.555375E-6	-40.578431
1.55542E-6	-40.598821
1.555465E-6	-40.607304
1.55551E-6	-40.589858
1.555555E-6	-40.466753
1.5556E-6	-40.226423
1.555645E-6	-40.039702
1.55569E-6	-39.969705
1.555735E-6	-39.956786
1.55578E-6	-39.93962
1.555825E-6	-39.93534
1.55587E-6	-39.952488
1.555915E-6	-39.991323
1.55596E-6	-40.119764
1.556005E-6	-40.353162
1.55605E-6	-40.553693
1.556095E-6	-40.631345
1.55614E-6	-40.649968
1.556185E-6	-40.657036
1.55623E-6	-40.64392
1.556275E-6	-40.53646
1.55632E-6	-39.850597
1.556365E-6	-31.196438
1.55641E-6	-23.349822
1.556455E-6	-20.020024
1.5565E-6	-19.003194
1.556545E-6	-18.797552
1.55659E-6	-18.751699
1.556635E-6	-18.761484
1.55668E-6	-18.830604
1.556725E-6	-19.519468
1.55677E-6	-22.097148
1.556815E-6	-28.554258
1.55686E-6	-37.068585
1.556905E-6	-40.01
1.55695E-6	-40.56456
1.556995E-6	-40.674248
1.55704E-6	-40.693566
1.557085E-6	-40.697643
1.55713E-6	-40.681355
1.557175E-6	-40.546792
1.55722E-6	-40.307705
1.557265E-6	-40.117979
1.55731E-6	-40.047159
1.557355E-6	-40.033132
1.5574E-6	-40.036197
1.557445E-6	-40.044526
1.55749E-6	-40.05331
1.557535E-6	-40.079327
1.55758E-6	-40.209071
1.557625E-6	-40.471591
1.55767E-6	-40.668672
1.557715E-6	-40.743785
1.55776E-6	-40.769115
1.557805E-6	-40.76031
1.55785E-6	-40.733489
1.557895E-6	-40.638886
1.55794E-6	-39.846402
1.557985E-6	-30.624821
1.55803E-6	-23.1078
1.558075E-6	-19.986991
1.55812E-6	-18.948306
1.558165E-6	-18.768019
1.55821E-6	-18.774565
1.558255E-6	-18.804142
1.5583E-6	-18.8706
1.558345E-6	-19.629721
1.55839E-6	-22.443538
1.558435E-6	-28.900841
1.55848E-6	-37.406451
1.558525E-6	-40.168249
1.55857E-6	-40.699174
1.558615E-6	-40.786257
1.55866E-6	-40.799289
1.558705E-6	-40.815503
1.55875E-6	-40.802422
1.558795E-6	-40.687965
1.55884E-6	-40.437355
1.558885E-6	-40.255344
1.55893E-6	-40.194058
1.558975E-6	-40.196784
1.55902E-6	-40.205427
1.559065E-6	-40.213174
1.55911E-6	-40.219108
1.559155E-6	-40.237418
1.5592E-6	-40.372519
1.559245E-6	-40.623317
1.55929E-6	-40.82442
1.559335E-6	-40.886826
1.55938E-6	-40.88576
1.559425E-6	-40.892156
1.55947E-6	-40.879374
1.559515E-6	-40.80765
1.55956E-6	-40.107727
1.559605E-6	-31.568919
1.55965E-6	-23.734543
1.559695E-6	-20.344691
1.55974E-6	-19.284862
1.559785E-6	-19.129288
1.55983E-6	-19.150664
1.559875E-6	-19.193735
1.55992E-6	-19.284862
1.559965E-6	-20.061231
1.56001E-6	-22.89798
1.560055E-6	-29.50782
1.5601E-6	-37.809397
1.560145E-6	-40.379149
1.56019E-6	-40.86451
1.560235E-6	-40.952845
1.56028E-6	-40.982149
1.560325E-6	-40.996329
1.56037E-6	-40.998514
1.560415E-6	-40.872467
1.56046E-6	-40.646439
1.560505E-6	-40.463369
1.56055E-6	-40.421534
1.560595E-6	-40.430156
1.56064E-6	-40.434954
1.560685E-6	-40.437355
1.56073E-6	-40.431595
1.560775E-6	-40.463369
1.56082E-6	-40.589858
1.560865E-6	-40.815503
1.56091E-6	-40.994144
1.560955E-6	-41.044117
1.561E-6	-41.045775
1.561045E-6	-41.056839
1.56109E-6	-41.062382
1.561135E-6	-41.072934
1.56118E-6	-41.062382
1.561225E-6	-40.94798
1.56127E-6	-40.741724
1.561315E-6	-40.587371
1.56136E-6	-40.540885
1.561405E-6	-40.55172
1.56145E-6	-40.546792
1.561495E-6	-40.54827
1.56154E-6	-40.55468
1.561585E-6	-40.577438
1.56163E-6	-40.693566
1.561675E-6	-40.901232
1.56172E-6	-41.050197
1.561765E-6	-41.101383
1.56181E-6	-41.114274
1.561855E-6	-41.119329
1.5619E-6	-41.135657
1.561945E-6	-41.136221
1.56199E-6	-41.120453
1.562035E-6	-41.034187
1.56208E-6	-40.857097
1.562125E-6	-40.706322
1.56217E-6	-40.659057
1.562215E-6	-40.653501
1.56226E-6	-40.644424
1.562305E-6	-40.640395
1.56235E-6	-40.644927
1.562395E-6	-40.665633
1.56244E-6	-40.753073
1.562485E-6	-40.926424
1.56253E-6	-41.083511
1.562575E-6	-41.140737
1.56262E-6	-41.154878
1.562665E-6	-41.174185
1.56271E-6	-41.17988
1.562755E-6	-41.187295
1.5628E-6	-41.171341
1.562845E-6	-41.099145
1.56289E-6	-40.938805
1.562935E-6	-40.8019
1.56298E-6	-40.746363
1.563025E-6	-40.740179
1.56307E-6	-40.735032
1.563115E-6	-40.733489
1.56316E-6	-40.748943
1.563205E-6	-40.766523
1.56325E-6	-40.834934
1.563295E-6	-40.987052
1.56334E-6	-41.138478
1.563385E-6	-41.198154
1.56343E-6	-41.222257
1.563475E-6	-41.233781
1.56352E-6	-41.223408
