Wavelength (nm)	Power (dBm)
1.525E-6	-73.960982
1.525045E-6	-73.592205
1.52509E-6	-74.270123
1.525135E-6	-75.924392
1.52518E-6	-79.863203
1.525225E-6	-83.608124
1.52527E-6	-87.119745
1.525315E-6	-85.343198
1.52536E-6	-85.37602
1.525405E-6	-85.721894
1.52545E-6	-84.633153
1.525495E-6	-79.92679
1.52554E-6	-74.956651
1.525585E-6	-72.980005
1.52563E-6	-72.625688
1.525675E-6	-72.567255
1.52572E-6	-72.285595
1.525765E-6	-72.006595
1.52581E-6	-71.989395
1.525855E-6	-72.241712
1.5259E-6	-73.769576
1.525945E-6	-77.382615
1.52599E-6	-81.17191
1.526035E-6	-84.149907
1.52608E-6	-87.307206
1.526125E-6	-85.373026
1.52617E-6	-85.702477
1.526215E-6	-84.160082
1.52626E-6	-79.969705
1.526305E-6	-74.345064
1.52635E-6	-71.86953
1.526395E-6	-71.198154
1.52644E-6	-70.962591
1.526485E-6	-70.850225
1.52653E-6	-70.826521
1.526575E-6	-70.771189
1.52662E-6	-70.805558
1.526665E-6	-72.24608
1.52671E-6	-74.817493
1.526755E-6	-79.0309
1.5268E-6	-83.653212
1.526845E-6	-84.816177
1.52689E-6	-86.472388
1.526935E-6	-84.799097
1.52698E-6	-87.026773
1.527025E-6	-80.829674
1.52707E-6	-74.136378
1.527115E-6	-71.202735
1.52716E-6	-70.068725
1.527205E-6	-69.858997
1.52725E-6	-69.75104
1.527295E-6	-69.767475
1.52734E-6	-69.645703
1.527385E-6	-69.641702
1.52743E-6	-70.439277
1.527475E-6	-72.940508
1.52752E-6	-77.366007
1.527565E-6	-80.893222
1.52761E-6	-85.991168
1.527655E-6	-85.625666
1.5277E-6	-85.75445
1.527745E-6	-84.298074
1.52779E-6	-81.590788
1.527835E-6	-74.513649
1.52788E-6	-70.769633
1.527925E-6	-69.288547
1.52797E-6	-68.85389
1.528015E-6	-68.784402
1.52806E-6	-68.725712
1.528105E-6	-68.626459
1.52815E-6	-68.655041
1.528195E-6	-69.211808
1.52824E-6	-71.006721
1.528285E-6	-74.780778
1.52833E-6	-79.637705
1.528375E-6	-83.195738
1.52842E-6	-84.903943
1.528465E-6	-86.14215
1.52851E-6	-83.813245
1.528555E-6	-83.240385
1.5286E-6	-75.026556
1.528645E-6	-70.803467
1.52869E-6	-68.748442
1.528735E-6	-68.178708
1.52878E-6	-68.096683
1.528825E-6	-68.079904
1.52887E-6	-68.091083
1.528915E-6	-68.010681
1.52896E-6	-68.297383
1.529005E-6	-69.858997
1.52905E-6	-72.757241
1.529095E-6	-78.282735
1.52914E-6	-82.73762
1.529185E-6	-84.717262
1.52923E-6	-84.933597
1.529275E-6	-84.349791
1.52932E-6	-85.307673
1.529365E-6	-78.474059
1.52941E-6	-71.450263
1.529455E-6	-68.71924
1.5295E-6	-67.739159
1.529545E-6	-67.594508
1.52959E-6	-67.382615
1.529635E-6	-67.363639
1.52968E-6	-67.382615
1.529725E-6	-67.582046
1.52977E-6	-68.648673
1.529815E-6	-70.970729
1.52986E-6	-75.840256
1.529905E-6	-80.415795
1.52995E-6	-84.077122
1.529995E-6	-85.030704
1.53004E-6	-84.479405
1.530085E-6	-83.742761
1.53013E-6	-80.510005
1.530175E-6	-72.443538
1.53022E-6	-68.996295
1.530265E-6	-67.476325
1.53031E-6	-67.189666
1.530355E-6	-67.185121
1.5304E-6	-67.113037
1.530445E-6	-67.026773
1.53049E-6	-67.108572
1.530535E-6	-67.708303
1.53058E-6	-69.880069
1.530625E-6	-73.565473
1.53067E-6	-79.850597
1.530715E-6	-82.219935
1.53076E-6	-86.649435
1.530805E-6	-84.878495
1.53085E-6	-84.524714
1.530895E-6	-82.335128
1.53094E-6	-74.378261
1.530985E-6	-69.718356
1.53103E-6	-67.56962
1.531075E-6	-67.050931
1.53112E-6	-66.972363
1.531165E-6	-66.948637
1.53121E-6	-66.88458
1.531255E-6	-66.895191
1.5313E-6	-67.265357
1.531345E-6	-68.693447
1.53139E-6	-71.678745
1.531435E-6	-77.108572
1.53148E-6	-81.214208
1.531525E-6	-83.505678
1.53157E-6	-84.491604
1.531615E-6	-85.670307
1.53166E-6	-84.32856
1.531705E-6	-78.167302
1.53175E-6	-70.974532
1.531795E-6	-68.187282
1.53184E-6	-67.196493
1.531885E-6	-66.952941
1.53193E-6	-66.955095
1.531975E-6	-66.983191
1.53202E-6	-66.931463
1.532065E-6	-67.144427
1.53211E-6	-68.035475
1.532155E-6	-70.171862
1.5322E-6	-74.771647
1.532245E-6	-79.858997
1.53229E-6	-83.175841
1.532335E-6	-85.660702
1.53238E-6	-85.253467
1.532425E-6	-84.22968
1.53247E-6	-80.853924
1.532515E-6	-73.207539
1.53256E-6	-69.104481
1.532605E-6	-67.552282
1.53265E-6	-67.176045
1.532695E-6	-67.10634
1.53274E-6	-67.10634
1.532785E-6	-67.117508
1.53283E-6	-67.142177
1.532875E-6	-67.710866
1.53292E-6	-69.50782
1.532965E-6	-73.033815
1.53301E-6	-78.557372
1.533055E-6	-82.144566
1.5331E-6	-84.92819
1.533145E-6	-84.143137
1.53319E-6	-84.989407
1.533235E-6	-83.515424
1.53328E-6	-75.692801
1.533325E-6	-70.921589
1.53337E-6	-68.419392
1.533415E-6	-67.644716
1.53346E-6	-67.490923
1.533505E-6	-67.503126
1.53355E-6	-67.609509
1.533595E-6	-67.657359
1.53364E-6	-67.89414
1.533685E-6	-69.065783
1.53373E-6	-71.433315
1.533775E-6	-76.483969
1.53382E-6	-80.717066
1.533865E-6	-84.507514
1.53391E-6	-85.673513
1.533955E-6	-85.8603
1.534E-6	-84.514877
1.534045E-6	-80.965302
1.53409E-6	-73.435185
1.534135E-6	-69.905491
1.53418E-6	-68.572978
1.534225E-6	-68.195874
1.53427E-6	-68.241984
1.534315E-6	-68.31208
1.53436E-6	-68.285661
1.534405E-6	-68.365404
1.53445E-6	-68.961963
1.534495E-6	-70.80765
1.53454E-6	-74.472101
1.534585E-6	-79.362914
1.53463E-6	-82.85838
1.534675E-6	-85.290018
1.53472E-6	-84.207882
1.534765E-6	-87.442452
1.53481E-6	-84.87449
1.534855E-6	-76.449318
1.5349E-6	-71.823024
1.534945E-6	-69.554602
1.53499E-6	-69.027427
1.535035E-6	-68.989406
1.53508E-6	-69.006647
1.535125E-6	-68.996295
1.53517E-6	-68.938091
1.535215E-6	-69.295927
1.53526E-6	-70.379623
1.535305E-6	-73.34044
1.53535E-6	-78.425432
1.535395E-6	-82.892904
1.53544E-6	-84.580465
1.535485E-6	-84.113922
1.53553E-6	-85.307673
1.535575E-6	-84.511194
1.53562E-6	-80.495378
1.535665E-6	-74.131877
1.53571E-6	-71.117082
1.535755E-6	-69.93962
1.5358E-6	-69.665762
1.535845E-6	-69.621752
1.53589E-6	-69.578184
1.535935E-6	-69.694003
1.53598E-6	-69.734667
1.536025E-6	-70.415795
1.53607E-6	-72.194667
1.536115E-6	-75.934598
1.53616E-6	-80.630843
1.536205E-6	-84.27942
1.53625E-6	-86.585655
1.536295E-6	-84.91201
1.53634E-6	-85.617742
1.536385E-6	-84.420119
1.53643E-6	-77.035542
1.536475E-6	-72.743333
1.53652E-6	-70.918368
1.536565E-6	-70.197239
1.53661E-6	-70.126466
1.536655E-6	-70.127808
1.5367E-6	-70.265489
1.536745E-6	-70.199966
1.53679E-6	-70.494891
1.536835E-6	-71.622853
1.53688E-6	-74.555599
1.536925E-6	-79.041335
1.53697E-6	-83.125602
1.537015E-6	-85.448505
1.53706E-6	-84.9026
1.537105E-6	-86.281935
1.53715E-6	-85.892228
1.537195E-6	-81.538485
1.53724E-6	-75.09901
1.537285E-6	-72.088008
1.53733E-6	-70.794071
1.537375E-6	-70.590853
1.53742E-6	-70.429677
1.537465E-6	-70.54827
1.53751E-6	-70.605307
1.537555E-6	-70.63235
1.5376E-6	-71.191864
1.537645E-6	-73.028579
1.53769E-6	-77.164726
1.537735E-6	-80.971272
1.53778E-6	-83.621102
1.537825E-6	-85.268051
1.53787E-6	-85.67191
1.537915E-6	-85.474469
1.53796E-6	-84.885177
1.538005E-6	-79.24453
1.53805E-6	-73.572388
1.538095E-6	-71.469105
1.53814E-6	-70.795636
1.538185E-6	-70.667659
1.53823E-6	-70.633355
1.538275E-6	-70.625323
1.53832E-6	-70.698664
1.538365E-6	-70.717066
1.53841E-6	-72.014875
1.538455E-6	-74.490382
1.5385E-6	-78.548036
1.538545E-6	-83.106911
1.53859E-6	-83.274404
1.538635E-6	-85.803746
1.53868E-6	-83.494982
1.538725E-6	-85.870357
1.53877E-6	-82.773661
1.538815E-6	-75.329842
1.53886E-6	-72.138877
1.538905E-6	-70.901232
1.53895E-6	-70.728864
1.538995E-6	-70.595333
1.53904E-6	-70.586377
1.539085E-6	-70.581409
1.53913E-6	-70.682879
1.539175E-6	-71.11259
1.53922E-6	-73.011169
1.539265E-6	-76.520848
1.53931E-6	-80.335297
1.539355E-6	-84.730149
1.5394E-6	-87.373117
1.539445E-6	-84.051656
1.53949E-6	-84.565528
1.539535E-6	-84.048346
1.53958E-6	-79.284862
1.539625E-6	-73.5635
1.53967E-6	-71.490476
1.539715E-6	-70.673233
1.53976E-6	-70.51196
1.539805E-6	-70.468204
1.53985E-6	-70.3711
1.539895E-6	-70.396244
1.53994E-6	-70.589858
1.539985E-6	-71.362015
1.54003E-6	-74.201021
1.540075E-6	-78.996295
1.54012E-6	-82.821631
1.540165E-6	-85.353614
1.54021E-6	-86.115435
1.540255E-6	-84.616777
1.5403E-6	-84.997635
1.540345E-6	-82.998157
1.54039E-6	-75.477534
1.540435E-6	-72.166682
1.54048E-6	-70.791986
1.540525E-6	-70.365427
1.54057E-6	-70.198148
1.540615E-6	-70.18272
1.54066E-6	-70.225965
1.540705E-6	-70.224136
1.54075E-6	-70.533513
1.540795E-6	-72.138877
1.54084E-6	-75.048721
1.540885E-6	-79.657727
1.54093E-6	-83.482376
1.540975E-6	-84.23083
1.54102E-6	-86.560009
1.541065E-6	-84.509967
1.54111E-6	-84.090468
1.541155E-6	-79.0309
1.5412E-6	-73.649186
1.541245E-6	-71.129456
1.54129E-6	-70.178193
1.541335E-6	-69.961088
1.54138E-6	-69.871628
1.541425E-6	-69.783973
1.54147E-6	-69.854795
1.541515E-6	-69.913998
1.54156E-6	-70.562088
1.541605E-6	-72.97311
1.54165E-6	-77.031155
1.541695E-6	-81.29362
1.54174E-6	-83.749964
1.541785E-6	-84.886515
1.54183E-6	-85.835259
1.541875E-6	-86.120765
1.54192E-6	-82.647206
1.541965E-6	-76.455074
1.54201E-6	-72.180293
1.542055E-6	-70.483226
1.5421E-6	-69.825493
1.542145E-6	-69.681877
1.54219E-6	-69.685915
1.542235E-6	-69.653715
1.54228E-6	-69.657727
1.542325E-6	-69.905491
1.54237E-6	-71.055732
1.542415E-6	-73.962063
1.54246E-6	-78.817353
1.542505E-6	-82.68653
1.54255E-6	-83.213906
1.542595E-6	-85.197055
1.54264E-6	-84.195312
1.542685E-6	-83.46884
1.54273E-6	-80.512448
1.542775E-6	-74.532106
1.54282E-6	-71.210189
1.542865E-6	-69.825493
1.54291E-6	-69.558524
1.542955E-6	-69.519468
1.543E-6	-69.535048
1.543045E-6	-69.527251
1.54309E-6	-69.54677
1.543135E-6	-69.892761
1.54318E-6	-71.76265
1.543225E-6	-75.147046
1.54327E-6	-79.649707
1.543315E-6	-84.48428
1.54336E-6	-84.391373
1.543405E-6	-84.849213
1.54345E-6	-85.244741
1.543495E-6	-84.681381
1.54354E-6	-80.119318
1.543585E-6	-72.817475
1.54363E-6	-70.365427
1.543675E-6	-69.531148
1.54372E-6	-69.469216
1.543765E-6	-69.434763
1.54381E-6	-69.393022
1.543855E-6	-69.288547
1.5439E-6	-69.434763
1.543945E-6	-70.197693
1.54399E-6	-72.674454
1.544035E-6	-77.139929
1.54408E-6	-81.666616
1.544125E-6	-83.158731
1.54417E-6	-83.719177
1.544215E-6	-85.347659
1.54426E-6	-84.873156
1.544305E-6	-82.76955
1.54435E-6	-75.855281
1.544395E-6	-71.684501
1.54444E-6	-69.838026
1.544485E-6	-69.423339
1.54453E-6	-69.310724
1.544575E-6	-69.262816
1.54462E-6	-69.295927
1.544665E-6	-69.255493
1.54471E-6	-69.578184
1.544755E-6	-70.645935
1.5448E-6	-73.509574
1.544845E-6	-78.410347
1.54489E-6	-81.112029
1.544935E-6	-81.86419
1.54498E-6	-81.53601
1.545025E-6	-76.261689
1.54507E-6	-69.746941
1.545115E-6	-56.001533
1.54516E-6	-42.099965
1.545205E-6	-36.821455
1.54525E-6	-34.782084
1.545295E-6	-34.27942
1.54534E-6	-34.197595
1.545385E-6	-34.153296
1.54543E-6	-34.161214
1.545475E-6	-34.524714
1.54552E-6	-36.460838
1.545565E-6	-40.841255
1.54561E-6	-50.306307
1.545655E-6	-61.725661
1.5457E-6	-68.23041
1.545745E-6	-73.894463
1.54579E-6	-78.569852
1.545835E-6	-80.580416
1.54588E-6	-81.234935
1.545925E-6	-78.467951
1.54597E-6	-72.786841
1.546015E-6	-70.217738
1.54606E-6	-69.299621
1.546105E-6	-69.219058
1.54615E-6	-69.229957
1.546195E-6	-69.147094
1.54624E-6	-69.058784
1.546285E-6	-69.215432
1.54633E-6	-69.965395
1.546375E-6	-72.267257
1.54642E-6	-76.265363
1.546465E-6	-80.133178
1.54651E-6	-82.353756
1.546555E-6	-82.186755
1.5466E-6	-79.359166
1.546645E-6	-72.961929
1.54669E-6	-63.439018
1.546735E-6	-47.93444
1.54678E-6	-38.535619
1.546825E-6	-35.457651
1.54687E-6	-34.367563
1.546915E-6	-34.168012
1.54696E-6	-34.112802
1.547005E-6	-34.097156
1.54705E-6	-34.22738
1.547095E-6	-35.272436
1.54714E-6	-38.651856
1.547185E-6	-45.443939
1.54723E-6	-57.366007
1.547275E-6	-64.8096
1.54732E-6	-71.02978
1.547365E-6	-77.057543
1.54741E-6	-79.469216
1.547455E-6	-81.644997
1.5475E-6	-80.811836
1.547545E-6	-74.443011
1.54759E-6	-71.02923
1.547635E-6	-69.54677
1.54768E-6	-69.154237
1.547725E-6	-69.062282
1.54777E-6	-69.150664
1.547815E-6	-69.139963
1.54786E-6	-69.229957
1.547905E-6	-69.527251
1.54795E-6	-70.972902
1.547995E-6	-73.95342
1.54804E-6	-78.620133
1.548085E-6	-81.307683
1.54813E-6	-82.113368
1.548175E-6	-81.260403
1.54822E-6	-75.810362
1.548265E-6	-69.051796
1.54831E-6	-54.538276
1.548355E-6	-41.427278
1.5484E-6	-36.437829
1.548445E-6	-34.561802
1.54849E-6	-34.10609
1.548535E-6	-34.031831
1.54858E-6	-34.018664
1.548625E-6	-34.03953
1.54867E-6	-34.443011
1.548715E-6	-36.462761
1.54876E-6	-41.105302
1.548805E-6	-50.677292
1.54885E-6	-61.880231
1.548895E-6	-68.483238
1.54894E-6	-73.901922
1.548985E-6	-78.392314
1.54903E-6	-81.26912
1.549075E-6	-82.040505
1.54912E-6	-78.344589
1.549165E-6	-72.579823
1.54921E-6	-70.206338
1.549255E-6	-69.359166
1.5493E-6	-69.175737
1.549345E-6	-69.172146
1.54939E-6	-69.143527
1.549435E-6	-68.850556
1.54948E-6	-69.172146
1.549525E-6	-69.838026
1.54957E-6	-71.909119
1.549615E-6	-76.169031
1.54966E-6	-79.613798
1.549705E-6	-81.518109
1.54975E-6	-80.990869
1.549795E-6	-79.629721
1.54984E-6	-73.202996
1.549885E-6	-64.615519
1.54993E-6	-48.840568
1.549975E-6	-38.827287
1.55002E-6	-35.443939
1.550065E-6	-34.221637
1.55011E-6	-34.000078
1.550155E-6	-33.982659
1.5502E-6	-33.95882
1.550245E-6	-34.000078
1.55029E-6	-34.734023
1.550335E-6	-37.527635
1.55038E-6	-43.54676
1.550425E-6	-55.601938
1.55047E-6	-63.094495
1.550515E-6	-69.909743
1.55056E-6	-76.274562
1.550605E-6	-79.161392
1.55065E-6	-81.26912
1.550695E-6	-80.271494
1.55074E-6	-75.485206
1.550785E-6	-71.380476
1.55083E-6	-69.554602
1.550875E-6	-69.069287
1.55092E-6	-69.010104
1.550965E-6	-68.938091
1.55101E-6	-68.887375
1.551055E-6	-68.90759
1.5511E-6	-69.090369
1.551145E-6	-70.175026
1.55119E-6	-73.056581
1.551235E-6	-78.317973
1.55128E-6	-81.631697
1.551325E-6	-85.262212
1.55137E-6	-86.813107
1.551415E-6	-84.352156
1.55146E-6	-83.64818
1.551505E-6	-80.946899
1.55155E-6	-74.67373
1.551595E-6	-70.924274
1.55164E-6	-69.366666
1.551685E-6	-69.037854
1.55173E-6	-68.833923
1.551775E-6	-68.807441
1.55182E-6	-68.887375
1.551865E-6	-68.787685
1.55191E-6	-69.139963
1.551955E-6	-70.283531
1.552E-6	-73.5164
1.552045E-6	-79.010104
1.55209E-6	-81.85819
1.552135E-6	-84.566771
1.55218E-6	-84.750849
1.552225E-6	-84.151037
1.55227E-6	-84.917397
1.552315E-6	-80.638886
1.55236E-6	-73.657243
1.552405E-6	-70.475466
1.55245E-6	-69.125735
1.552495E-6	-68.840568
1.55254E-6	-68.745187
1.552585E-6	-68.680607
1.55263E-6	-68.774565
1.552675E-6	-68.732194
1.55272E-6	-69.161392
1.552765E-6	-70.917831
1.55281E-6	-74.2159
1.552855E-6	-79.200955
1.5529E-6	-82.933675
1.552945E-6	-83.80385
1.55299E-6	-85.446982
1.553035E-6	-85.132862
1.55308E-6	-83.477537
1.553125E-6	-79.215432
1.55317E-6	-72.764622
1.553215E-6	-69.978339
1.55326E-6	-68.948306
1.553305E-6	-68.732194
1.55335E-6	-68.677403
1.553395E-6	-68.548036
1.55344E-6	-68.613816
1.553485E-6	-68.629625
1.55353E-6	-69.129288
1.553575E-6	-70.95555
1.55362E-6	-74.704413
1.553665E-6	-78.751699
1.55371E-6	-83.150649
1.553755E-6	-85.279753
1.5538E-6	-85.62408
1.553845E-6	-83.843655
1.55389E-6	-84.455108
1.553935E-6	-78.78112
1.55398E-6	-72.315099
1.554025E-6	-69.730584
1.55407E-6	-68.777841
1.554115E-6	-68.560489
1.55416E-6	-68.535619
1.554205E-6	-68.53872
1.55425E-6	-68.535619
1.554295E-6	-68.53252
1.55434E-6	-69.284862
1.554385E-6	-71.133965
1.55443E-6	-74.855851
1.554475E-6	-79.738755
1.55452E-6	-84.026339
1.554565E-6	-85.145625
1.55461E-6	-84.61175
1.554655E-6	-85.28855
1.5547E-6	-83.464981
1.554745E-6	-76.595559
1.55479E-6	-71.777011
1.554835E-6	-69.450041
1.55488E-6	-68.642315
1.554925E-6	-68.513973
1.55497E-6	-68.452718
1.555015E-6	-68.33866
1.55506E-6	-68.395315
1.555105E-6	-68.51089
1.55515E-6	-69.222688
1.555195E-6	-71.213633
1.55524E-6	-75.652715
1.555285E-6	-80.335767
1.55533E-6	-83.167728
1.555375E-6	-85.120137
1.55542E-6	-83.87534
1.555465E-6	-84.797786
1.55551E-6	-82.865935
1.555555E-6	-76.185239
1.5556E-6	-71.45694
1.555645E-6	-69.229957
1.55569E-6	-68.513973
1.555735E-6	-68.362425
1.55578E-6	-68.347557
1.555825E-6	-68.326827
1.55587E-6	-68.377344
1.555915E-6	-68.467951
1.55596E-6	-69.219058
1.556005E-6	-71.455118
1.55605E-6	-75.792194
1.556095E-6	-80.345161
1.55614E-6	-83.390397
1.556185E-6	-85.851937
1.55623E-6	-84.870489
1.556275E-6	-85.462231
1.55632E-6	-82.26433
1.556365E-6	-75.649524
1.55641E-6	-71.199299
1.556455E-6	-69.197344
1.5565E-6	-68.471004
1.556545E-6	-68.323873
1.55659E-6	-68.288588
1.556635E-6	-68.353498
1.55668E-6	-68.22175
1.556725E-6	-68.398317
1.55677E-6	-69.125735
1.556815E-6	-71.611509
1.55686E-6	-76.5738
1.556905E-6	-80.967472
1.55695E-6	-84.170281
1.556995E-6	-85.208568
1.55704E-6	-86.937895
1.557085E-6	-84.144265
1.55713E-6	-81.738604
1.557175E-6	-75.68154
1.55722E-6	-71.095231
1.557265E-6	-69.132843
1.55731E-6	-68.437538
1.557355E-6	-68.356471
1.5574E-6	-68.341624
1.557445E-6	-68.320922
1.55749E-6	-68.315025
1.557535E-6	-68.480176
1.55758E-6	-69.362914
1.557625E-6	-71.717269
1.55767E-6	-76.050233
1.557715E-6	-80.130045
1.55776E-6	-84.193031
1.557805E-6	-85.725139
1.55785E-6	-84.621809
1.557895E-6	-85.083582
1.55794E-6	-82.16025
1.557985E-6	-75.636783
1.55803E-6	-71.215931
1.558075E-6	-69.172146
1.55812E-6	-68.45576
1.558165E-6	-68.335699
1.55821E-6	-68.416375
1.558255E-6	-68.377344
1.5583E-6	-68.431481
1.558345E-6	-68.523237
1.55839E-6	-69.393022
1.558435E-6	-71.769825
1.55848E-6	-76.701955
1.558525E-6	-80.759793
1.55857E-6	-84.824083
1.558615E-6	-85.630427
1.55866E-6	-86.890944
1.558705E-6	-86.829819
1.55875E-6	-83.096267
1.558795E-6	-75.526869
1.55884E-6	-71.192436
1.558885E-6	-69.248181
1.55893E-6	-68.680607
1.558975E-6	-68.604357
1.55902E-6	-68.620133
1.559065E-6	-68.492436
1.55911E-6	-68.554258
1.559155E-6	-68.690233
1.5592E-6	-69.566377
1.559245E-6	-71.854195
1.55929E-6	-76.655462
1.559335E-6	-80.768078
1.55938E-6	-82.121146
1.559425E-6	-85.284149
1.55947E-6	-85.352125
1.559515E-6	-84.128505
1.55956E-6	-82.050939
1.559605E-6	-75.949953
1.55965E-6	-71.573284
1.559695E-6	-69.3968
1.55974E-6	-68.833923
1.559785E-6	-68.761484
1.55983E-6	-68.728952
1.559875E-6	-68.76475
1.55992E-6	-68.804142
1.559965E-6	-68.904215
1.56001E-6	-69.796387
1.560055E-6	-72.308443
1.5601E-6	-76.78816
1.560145E-6	-85.652715
1.56019E-6	-84.677554
1.560235E-6	-86.637404
1.56028E-6	-83.856302
1.560325E-6	-85.798792
1.56037E-6	-82.774483
1.560415E-6	-76.341378
1.56046E-6	-72.004527
1.560505E-6	-69.469216
1.56055E-6	-69.24453
1.560595E-6	-69.139963
1.56064E-6	-69.125735
1.560685E-6	-69.017025
1.56073E-6	-69.136402
1.560775E-6	-69.233596
1.56082E-6	-70.162835
1.560865E-6	-72.488749
1.56091E-6	-76.540385
1.560955E-6	-80.556654
1.561E-6	-84.497716
1.561045E-6	-86.090649
1.56109E-6	-85.75445
1.561135E-6	-84.695442
1.56118E-6	-82.095741
1.561225E-6	-78.227522
1.56127E-6	-72.36572
1.561315E-6	-70.145735
1.56136E-6	-69.722428
1.561405E-6	-69.476909
1.56145E-6	-69.503944
1.561495E-6	-69.461536
1.56154E-6	-69.515582
1.561585E-6	-69.706162
1.56163E-6	-70.448416
1.561675E-6	-72.647206
1.56172E-6	-76.834007
1.561765E-6	-80.890556
1.56181E-6	-84.838614
1.561855E-6	-85.310622
1.5619E-6	-85.699249
1.561945E-6	-84.012095
1.56199E-6	-85.083582
1.562035E-6	-79.065783
1.56208E-6	-73.332949
1.562125E-6	-70.878843
1.56217E-6	-70.157878
1.562215E-6	-69.808837
1.56226E-6	-69.892761
1.562305E-6	-69.943906
1.56235E-6	-69.969705
1.562395E-6	-70.004345
1.56244E-6	-70.702236
1.562485E-6	-72.554723
1.56253E-6	-76.259853
1.562575E-6	-80.678815
1.56262E-6	-84.990778
1.562665E-6	-87.723704
1.56271E-6	-84.445428
1.562755E-6	-85.36555
1.5628E-6	-84.027437
1.562845E-6	-80.220936
1.56289E-6	-74.018664
1.562935E-6	-71.511953
1.56298E-6	-70.668672
1.563025E-6	-70.410541
1.56307E-6	-70.409586
1.563115E-6	-70.435434
1.56316E-6	-70.419142
1.563205E-6	-70.575951
1.56325E-6	-71.02978
1.563295E-6	-72.914941
1.56334E-6	-76.516951
1.563385E-6	-80.992506
1.56343E-6	-84.146521
1.563475E-6	-84.104972
