Wavelength (nm)	Power (dBm)
1.525E-6	-59.503944
1.525045E-6	-59.554602
1.52509E-6	-60.210438
1.525135E-6	-62.468768
1.52518E-6	-66.769543
1.525225E-6	-71.159981
1.52527E-6	-73.274404
1.525315E-6	-73.666326
1.52536E-6	-73.601153
1.525405E-6	-73.331078
1.52545E-6	-70.205882
1.525495E-6	-63.757179
1.52554E-6	-60.160131
1.525585E-6	-58.706324
1.52563E-6	-58.256494
1.525675E-6	-58.043771
1.52572E-6	-57.883456
1.525765E-6	-57.726276
1.52581E-6	-57.627077
1.525855E-6	-58.121974
1.5259E-6	-59.93962
1.525945E-6	-63.900856
1.52599E-6	-69.665762
1.526035E-6	-72.664817
1.52608E-6	-73.473669
1.526125E-6	-73.202996
1.52617E-6	-73.428485
1.526215E-6	-70.900163
1.52626E-6	-63.587242
1.526305E-6	-59.351678
1.52635E-6	-57.377863
1.526395E-6	-56.804776
1.52644E-6	-56.647427
1.526485E-6	-56.544302
1.52653E-6	-56.462761
1.526575E-6	-56.411138
1.52662E-6	-56.703988
1.526665E-6	-58.210231
1.52671E-6	-61.46606
1.526755E-6	-66.965879
1.5268E-6	-71.478861
1.526845E-6	-73.123819
1.52689E-6	-73.239469
1.526935E-6	-73.126494
1.52698E-6	-71.557714
1.527025E-6	-64.038429
1.52707E-6	-58.972234
1.527115E-6	-56.420652
1.52716E-6	-55.605094
1.527205E-6	-55.404567
1.52725E-6	-55.323919
1.527295E-6	-55.254924
1.52734E-6	-55.233133
1.527385E-6	-55.37153
1.52743E-6	-56.472388
1.527475E-6	-59.453869
1.52752E-6	-64.506288
1.527565E-6	-69.597934
1.52761E-6	-72.724587
1.527655E-6	-72.97311
1.5277E-6	-72.97828
1.527745E-6	-72.38448
1.52779E-6	-65.400047
1.527835E-6	-59.215432
1.52788E-6	-55.88212
1.527925E-6	-54.745664
1.52797E-6	-54.457532
1.528015E-6	-54.377071
1.52806E-6	-54.329736
1.528105E-6	-54.298074
1.52815E-6	-54.345064
1.528195E-6	-55.083582
1.52824E-6	-57.389752
1.528285E-6	-61.803245
1.52833E-6	-67.994231
1.528375E-6	-71.670442
1.52842E-6	-72.755603
1.528465E-6	-72.740884
1.52851E-6	-72.655202
1.528555E-6	-67.139929
1.5286E-6	-60.081097
1.528645E-6	-55.798792
1.52869E-6	-54.174821
1.528735E-6	-53.749964
1.52878E-6	-53.645163
1.528825E-6	-53.624102
1.52887E-6	-53.5635
1.528915E-6	-53.541849
1.52896E-6	-53.943718
1.529005E-6	-55.691191
1.52905E-6	-59.730584
1.529095E-6	-65.31505
1.52914E-6	-70.078001
1.529185E-6	-71.753536
1.52923E-6	-71.015491
1.529275E-6	-67.246886
1.52932E-6	-60.309104
1.529365E-6	-43.379981
1.52941E-6	-34.759936
1.529455E-6	-30.886826
1.5295E-6	-29.366666
1.529545E-6	-28.996295
1.52959E-6	-28.917733
1.529635E-6	-28.777841
1.52968E-6	-28.807441
1.529725E-6	-29.706162
1.52977E-6	-32.713216
1.529815E-6	-39.333014
1.52986E-6	-50.565055
1.529905E-6	-60.180908
1.52995E-6	-65.657505
1.529995E-6	-69.706162
1.53004E-6	-71.017137
1.530085E-6	-70.982693
1.53013E-6	-63.681505
1.530175E-6	-57.151183
1.53022E-6	-54.124013
1.530265E-6	-52.975695
1.53031E-6	-52.695407
1.530355E-6	-52.639224
1.5304E-6	-52.621715
1.530445E-6	-52.58612
1.53049E-6	-52.658405
1.530535E-6	-53.435185
1.53058E-6	-55.785606
1.530625E-6	-60.177288
1.53067E-6	-66.74074
1.530715E-6	-70.610302
1.53076E-6	-71.582027
1.530805E-6	-69.956786
1.53085E-6	-65.184141
1.530895E-6	-55.36555
1.53094E-6	-39.295927
1.530985E-6	-32.901367
1.53103E-6	-30.044964
1.531075E-6	-29.161392
1.53112E-6	-28.975663
1.531165E-6	-28.863908
1.53121E-6	-28.833923
1.531255E-6	-29.037854
1.5313E-6	-30.376307
1.531345E-6	-34.327383
1.53139E-6	-42.04259
1.531435E-6	-54.316809
1.53148E-6	-62.068385
1.531525E-6	-67.135435
1.53157E-6	-69.817157
1.531615E-6	-71.201017
1.53166E-6	-69.434763
1.531705E-6	-61.150914
1.53175E-6	-55.683147
1.531795E-6	-53.271635
1.53184E-6	-52.524328
1.531885E-6	-52.413152
1.53193E-6	-52.417696
1.531975E-6	-52.401056
1.53202E-6	-52.367967
1.532065E-6	-52.546129
1.53211E-6	-53.611116
1.532155E-6	-56.532559
1.5322E-6	-61.511953
1.532245E-6	-68.027194
1.53229E-6	-71.085741
1.532335E-6	-71.257502
1.53238E-6	-69.270153
1.532425E-6	-63.666326
1.53247E-6	-51.408617
1.532515E-6	-36.663512
1.53256E-6	-31.707606
1.532605E-6	-29.476909
1.53265E-6	-28.938091
1.532695E-6	-28.843895
1.53274E-6	-28.847224
1.532785E-6	-28.884015
1.53283E-6	-29.318141
1.532875E-6	-31.154312
1.53292E-6	-35.870357
1.532965E-6	-44.907975
1.53301E-6	-56.333903
1.533055E-6	-62.620127
1.5331E-6	-68.138916
1.533145E-6	-70.293742
1.53319E-6	-71.442386
1.533235E-6	-68.526329
1.53328E-6	-60.399575
1.533325E-6	-55.597208
1.53337E-6	-53.564486
1.533415E-6	-52.967086
1.53346E-6	-52.882771
1.533505E-6	-52.892059
1.53355E-6	-52.94564
1.533595E-6	-53.078584
1.53364E-6	-53.386607
1.533685E-6	-54.757337
1.53373E-6	-58.065971
1.533775E-6	-63.322669
1.53382E-6	-69.347939
1.533865E-6	-71.452083
1.53391E-6	-71.185012
1.533955E-6	-68.794261
1.534E-6	-62.55707
1.534045E-6	-49.590023
1.53409E-6	-35.956795
1.534135E-6	-31.277854
1.53418E-6	-29.284862
1.534225E-6	-28.877302
1.53427E-6	-28.863908
1.534315E-6	-28.965384
1.53436E-6	-29.058784
1.534405E-6	-29.550685
1.53445E-6	-31.660246
1.534495E-6	-36.68168
1.53454E-6	-45.943122
1.534585E-6	-57.110804
1.53463E-6	-63.368647
1.534675E-6	-68.585502
1.53472E-6	-70.727323
1.534765E-6	-71.5422
1.53481E-6	-68.517059
1.534855E-6	-60.913542
1.5349E-6	-56.665527
1.534945E-6	-54.930893
1.53499E-6	-54.455108
1.535035E-6	-54.427335
1.53508E-6	-54.473318
1.535125E-6	-54.505063
1.53517E-6	-54.564286
1.535215E-6	-54.903943
1.53526E-6	-56.401645
1.535305E-6	-59.645703
1.53535E-6	-65.326879
1.535395E-6	-70.167346
1.53544E-6	-71.744441
1.535485E-6	-71.350738
1.53553E-6	-68.632794
1.535575E-6	-62.217764
1.53562E-6	-48.569852
1.535665E-6	-36.024076
1.53571E-6	-31.049091
1.535755E-6	-29.147094
1.5358E-6	-28.751699
1.535845E-6	-28.807441
1.53589E-6	-28.887375
1.535935E-6	-29.006647
1.53598E-6	-29.590023
1.536025E-6	-31.860189
1.53607E-6	-37.493361
1.536115E-6	-47.510464
1.53616E-6	-58.23041
1.536205E-6	-64.265482
1.53625E-6	-68.992849
1.536295E-6	-70.945819
1.53634E-6	-71.672357
1.536385E-6	-69.027427
1.53643E-6	-61.985277
1.536475E-6	-57.862167
1.53652E-6	-56.196078
1.536565E-6	-55.792194
1.53661E-6	-55.751184
1.536655E-6	-55.764265
1.5367E-6	-55.792194
1.536745E-6	-55.83859
1.53679E-6	-56.205132
1.536835E-6	-57.68021
1.53688E-6	-60.875122
1.536925E-6	-66.377061
1.53697E-6	-70.609802
1.537015E-6	-71.964746
1.53706E-6	-71.354889
1.537105E-6	-68.690233
1.53715E-6	-62.271651
1.537195E-6	-48.651856
1.53724E-6	-36.090649
1.537285E-6	-31.136221
1.53733E-6	-29.193735
1.537375E-6	-28.820662
1.53742E-6	-28.814046
1.537465E-6	-28.817353
1.53751E-6	-28.867253
1.537555E-6	-29.37418
1.5376E-6	-31.650709
1.537645E-6	-37.212464
1.53769E-6	-47.124222
1.537735E-6	-57.878124
1.53778E-6	-63.934037
1.537825E-6	-68.965384
1.53787E-6	-70.861332
1.537915E-6	-71.745739
1.53796E-6	-69.582127
1.538005E-6	-62.931116
1.53805E-6	-58.76475
1.538095E-6	-56.85922
1.53814E-6	-56.399749
1.538185E-6	-56.309698
1.53823E-6	-56.29672
1.538275E-6	-56.29672
1.53832E-6	-56.333903
1.538365E-6	-56.605486
1.53841E-6	-57.942545
1.538455E-6	-60.95555
1.5385E-6	-66.214204
1.538545E-6	-70.429677
1.53859E-6	-71.950432
1.538635E-6	-71.522423
1.53868E-6	-69.215432
1.538725E-6	-63.25966
1.53877E-6	-50.323584
1.538815E-6	-36.691805
1.53886E-6	-31.683222
1.538905E-6	-29.558524
1.53895E-6	-29.037854
1.538995E-6	-28.955129
1.53904E-6	-28.890738
1.539085E-6	-28.880657
1.53913E-6	-29.270153
1.539175E-6	-31.30006
1.53922E-6	-36.416844
1.539265E-6	-45.700863
1.53931E-6	-57.126462
1.539355E-6	-63.330143
1.5394E-6	-68.572978
1.539445E-6	-70.746363
1.53949E-6	-71.723723
1.539535E-6	-70.051552
1.53958E-6	-63.184874
1.539625E-6	-58.810742
1.53967E-6	-56.753061
1.539715E-6	-56.219657
1.53976E-6	-56.090649
1.539805E-6	-56.069515
1.53985E-6	-56.057235
1.539895E-6	-56.064248
1.53994E-6	-56.289321
1.539985E-6	-57.4958
1.54003E-6	-60.379623
1.540075E-6	-65.514483
1.54012E-6	-70.092173
1.540165E-6	-71.913165
1.54021E-6	-71.602078
1.540255E-6	-69.554602
1.5403E-6	-64.073792
1.540345E-6	-52.288537
1.54039E-6	-37.644716
1.540435E-6	-32.193947
1.54048E-6	-29.75104
1.540525E-6	-29.069287
1.54057E-6	-28.904215
1.540615E-6	-28.85389
1.54066E-6	-28.827287
1.540705E-6	-29.097419
1.54075E-6	-30.8302
1.540795E-6	-35.383514
1.54084E-6	-43.89979
1.540885E-6	-55.746288
1.54093E-6	-62.128939
1.540975E-6	-67.947956
1.54102E-6	-70.490999
1.541065E-6	-71.46606
1.54111E-6	-70.278435
1.541155E-6	-63.444774
1.5412E-6	-58.804142
1.541245E-6	-56.392173
1.54129E-6	-55.652715
1.541335E-6	-55.497509
1.54138E-6	-55.451551
1.541425E-6	-55.450028
1.54147E-6	-55.451551
1.541515E-6	-55.611413
1.54156E-6	-56.558043
1.541605E-6	-59.277501
1.54165E-6	-63.91474
1.541695E-6	-69.438577
1.54174E-6	-71.674272
1.541785E-6	-71.682582
1.54183E-6	-70.151578
1.541875E-6	-65.16698
1.54192E-6	-55.331324
1.541965E-6	-39.122186
1.54201E-6	-32.748237
1.542055E-6	-29.892761
1.5421E-6	-29.0309
1.542145E-6	-28.87395
1.54219E-6	-28.817353
1.542235E-6	-28.761484
1.54228E-6	-28.917733
1.542325E-6	-30.138555
1.54237E-6	-33.828948
1.542415E-6	-41.534155
1.54246E-6	-52.488749
1.542505E-6	-61.62033
1.54255E-6	-66.74895
1.542595E-6	-69.905491
1.54264E-6	-71.350738
1.542685E-6	-71.136785
1.54273E-6	-64.849213
1.542775E-6	-59.157813
1.54282E-6	-56.237881
1.542865E-6	-55.268051
1.54291E-6	-55.064026
1.542955E-6	-55.036239
1.543E-6	-55.03901
1.543045E-6	-55.01276
1.54309E-6	-55.05289
1.543135E-6	-55.712175
1.54318E-6	-57.888795
1.543225E-6	-61.945671
1.54327E-6	-67.899492
1.543315E-6	-71.229744
1.54336E-6	-71.723723
1.543405E-6	-70.766005
1.54345E-6	-66.601512
1.543495E-6	-59.270153
1.54354E-6	-42.177424
1.543585E-6	-34.162346
1.54363E-6	-30.471591
1.543675E-6	-29.182927
1.54372E-6	-28.904215
1.543765E-6	-28.847224
1.54381E-6	-28.814046
1.543855E-6	-28.847224
1.5439E-6	-29.590023
1.543945E-6	-32.376966
1.54399E-6	-38.904215
1.544035E-6	-49.219058
1.54408E-6	-59.20457
1.544125E-6	-64.918745
1.54417E-6	-69.37418
1.544215E-6	-70.924812
1.54426E-6	-71.379879
1.544305E-6	-66.790233
1.54435E-6	-60.283068
1.544395E-6	-56.532559
1.54444E-6	-55.09199
1.544485E-6	-54.754741
1.54453E-6	-54.70313
1.544575E-6	-54.70313
1.54462E-6	-54.708264
1.544665E-6	-54.718549
1.54471E-6	-55.096201
1.544755E-6	-56.683703
1.5448E-6	-60.120211
1.544845E-6	-65.736514
1.54489E-6	-70.156077
1.544935E-6	-71.719204
1.54498E-6	-71.233781
1.545025E-6	-68.626459
1.54507E-6	-62.327699
1.545115E-6	-48.335699
1.54516E-6	-35.840256
1.545205E-6	-31.399616
1.54525E-6	-29.519468
1.545295E-6	-29.065783
1.54534E-6	-28.965384
1.545385E-6	-28.955129
1.54543E-6	-28.948306
1.545475E-6	-29.333014
1.54552E-6	-31.298888
1.545565E-6	-36.247023
1.54561E-6	-45.36107
1.545655E-6	-56.657474
1.5457E-6	-62.985184
1.545745E-6	-68.256494
1.54579E-6	-70.526153
1.545835E-6	-71.603963
1.54588E-6	-69.867413
1.545925E-6	-62.478747
1.54597E-6	-57.512913
1.546015E-6	-55.359578
1.54606E-6	-54.704413
1.546105E-6	-54.599209
1.54615E-6	-54.564286
1.546195E-6	-54.55312
1.54624E-6	-54.563044
1.546285E-6	-54.732731
1.54633E-6	-55.70894
1.546375E-6	-58.501653
1.54642E-6	-63.148855
1.546465E-6	-68.867253
1.54651E-6	-71.371533
1.546555E-6	-71.4752
1.5466E-6	-70.240171
1.546645E-6	-65.37602
1.54669E-6	-55.581478
1.546735E-6	-39.718356
1.54678E-6	-33.042557
1.546825E-6	-30.013048
1.54687E-6	-29.104481
1.546915E-6	-28.917733
1.54696E-6	-28.894103
1.547005E-6	-28.8706
1.54705E-6	-29.003194
1.547095E-6	-30.044087
1.54714E-6	-33.396089
1.547185E-6	-40.245222
1.54723E-6	-51.423057
1.547275E-6	-60.637377
1.54732E-6	-66.036263
1.547365E-6	-69.590023
1.54741E-6	-71.106983
1.547455E-6	-71.300646
1.5475E-6	-65.488278
1.547545E-6	-59.381707
1.54759E-6	-56.0206
1.547635E-6	-54.803032
1.54768E-6	-54.549404
1.547725E-6	-54.517335
1.54777E-6	-54.527177
1.547815E-6	-54.537042
1.54786E-6	-54.581712
1.547905E-6	-55.072396
1.54795E-6	-56.893067
1.547995E-6	-60.425843
1.54804E-6	-66.214204
1.548085E-6	-70.44649
1.54813E-6	-71.665341
1.548175E-6	-71.006721
1.54822E-6	-68.350526
1.548265E-6	-61.803903
1.54831E-6	-47.609509
1.548355E-6	-35.795491
1.5484E-6	-31.146388
1.548445E-6	-29.362914
1.54849E-6	-28.924509
1.548535E-6	-28.863908
1.54858E-6	-28.847224
1.548625E-6	-28.867253
1.54867E-6	-29.237237
1.548715E-6	-31.266213
1.54876E-6	-36.395959
1.548805E-6	-45.723516
1.54885E-6	-56.781945
1.548895E-6	-63.123819
1.54894E-6	-68.350526
1.548985E-6	-70.45661
1.54903E-6	-71.404414
1.549075E-6	-69.673812
1.54912E-6	-62.276783
1.549165E-6	-57.47147
1.54921E-6	-55.334289
1.549255E-6	-54.66991
1.5493E-6	-54.556839
1.549345E-6	-54.548166
1.54939E-6	-54.538276
1.549435E-6	-54.523483
1.54948E-6	-54.653394
1.549525E-6	-55.590909
1.54957E-6	-58.175853
1.549615E-6	-62.8208
1.54966E-6	-68.664611
1.549705E-6	-71.42125
1.54975E-6	-71.633595
1.549795E-6	-70.184532
1.54984E-6	-65.689581
1.549885E-6	-56.794383
1.54993E-6	-40.440718
1.549975E-6	-33.289198
1.55002E-6	-30.089069
1.550065E-6	-29.08333
1.55011E-6	-28.9279
1.550155E-6	-28.880657
1.5502E-6	-28.85389
1.550245E-6	-28.917733
1.55029E-6	-29.625735
1.550335E-6	-32.448114
1.55038E-6	-39.154237
1.550425E-6	-49.738755
1.55047E-6	-59.566377
1.550515E-6	-65.16698
1.55056E-6	-69.515582
1.550605E-6	-70.88576
1.55065E-6	-71.262726
1.550695E-6	-66.583677
1.55074E-6	-60.091286
1.550785E-6	-56.343249
1.55083E-6	-54.877159
1.550875E-6	-54.516106
1.55092E-6	-54.450265
1.550965E-6	-54.445428
1.55101E-6	-54.445428
1.551055E-6	-54.439388
1.5511E-6	-54.780778
1.551145E-6	-56.22876
1.55119E-6	-59.722428
1.551235E-6	-64.949858
1.55128E-6	-69.783973
1.551325E-6	-71.671081
1.55137E-6	-71.360826
1.551415E-6	-69.299621
1.55146E-6	-63.715089
1.551505E-6	-51.868862
1.55155E-6	-37.544873
1.551595E-6	-32.146702
1.55164E-6	-29.771594
1.551685E-6	-29.125735
1.55173E-6	-29.027427
1.551775E-6	-29.003194
1.55182E-6	-28.985966
1.551865E-6	-29.139963
1.55191E-6	-30.479829
1.551955E-6	-34.405722
1.552E-6	-42.246809
1.552045E-6	-53.923306
1.55209E-6	-62.074682
1.552135E-6	-67.033348
1.55218E-6	-70.09306
1.552225E-6	-71.223408
1.55227E-6	-70.7099
1.552315E-6	-64.266642
1.55236E-6	-58.541823
1.552405E-6	-55.55799
1.55245E-6	-54.577972
1.552495E-6	-54.360445
1.55254E-6	-54.337983
1.552585E-6	-54.314463
1.55263E-6	-54.299243
1.552675E-6	-54.348608
1.55272E-6	-54.91605
1.552765E-6	-56.9897
1.55281E-6	-60.805035
1.552855E-6	-66.806857
1.5529E-6	-70.696114
1.552945E-6	-71.619699
1.55299E-6	-70.871405
1.553035E-6	-68.046539
1.55308E-6	-61.293035
1.553125E-6	-46.978856
1.55317E-6	-35.334289
1.553215E-6	-30.928037
1.55326E-6	-29.329291
1.553305E-6	-28.944898
1.55335E-6	-28.847224
1.553395E-6	-28.837244
1.55344E-6	-28.817353
1.553485E-6	-29.240882
1.55353E-6	-31.211337
1.553575E-6	-36.161846
1.55362E-6	-45.303252
1.553665E-6	-56.261689
1.55371E-6	-62.515794
1.553755E-6	-68.054857
1.5538E-6	-70.534495
1.553845E-6	-71.347183
1.55389E-6	-69.706162
1.553935E-6	-62.261404
1.55398E-6	-57.185121
1.554025E-6	-55.000381
1.55407E-6	-54.330913
1.554115E-6	-54.170281
1.55416E-6	-54.12289
1.554205E-6	-54.156688
1.55425E-6	-54.156688
1.554295E-6	-54.265482
1.55434E-6	-55.079384
1.554385E-6	-57.527635
1.55443E-6	-61.86419
1.554475E-6	-67.93444
1.55452E-6	-71.206747
1.554565E-6	-71.758091
1.55461E-6	-70.499761
1.554655E-6	-66.409238
1.5547E-6	-58.941493
1.554745E-6	-41.949752
1.55479E-6	-34.14201
1.554835E-6	-30.54827
1.55488E-6	-29.318141
1.554925E-6	-29.051796
1.55497E-6	-28.989406
1.555015E-6	-28.979095
1.55506E-6	-29.017025
1.555105E-6	-29.511699
1.55515E-6	-31.833611
1.555195E-6	-37.652297
1.55524E-6	-47.718564
1.555285E-6	-57.988761
1.55533E-6	-63.888079
1.555375E-6	-69.006647
1.55542E-6	-70.720141
1.555465E-6	-71.391232
1.55551E-6	-68.44664
1.555555E-6	-60.835987
1.5556E-6	-56.468535
1.555645E-6	-54.629369
1.55569E-6	-54.099388
1.555735E-6	-54.004444
1.55578E-6	-53.990271
1.555825E-6	-53.992449
1.55587E-6	-53.994627
1.555915E-6	-54.171415
1.55596E-6	-55.179844
1.556005E-6	-57.942545
1.55605E-6	-62.728656
1.556095E-6	-68.645493
1.55614E-6	-71.254022
1.556185E-6	-71.485582
1.55623E-6	-70.339522
1.556275E-6	-65.702477
1.55632E-6	-56.726411
1.556365E-6	-40.360706
1.55641E-6	-33.450538
1.556455E-6	-30.154727
1.5565E-6	-29.086848
1.556545E-6	-28.860566
1.55659E-6	-28.847224
1.556635E-6	-28.827287
1.55668E-6	-28.8706
1.556725E-6	-29.574245
1.55677E-6	-32.269453
1.556815E-6	-38.725712
1.55686E-6	-48.8706
1.556905E-6	-58.860566
1.55695E-6	-64.780778
1.556995E-6	-69.318141
1.55704E-6	-70.825995
1.557085E-6	-71.409819
1.55713E-6	-68.046539
1.557175E-6	-60.40577
1.55722E-6	-56.205132
1.557265E-6	-54.548166
1.55731E-6	-54.096041
1.557355E-6	-54.019759
1.5574E-6	-54.026339
1.557445E-6	-54.026339
1.55749E-6	-54.041732
1.557535E-6	-54.238891
1.55758E-6	-55.385015
1.557625E-6	-58.33866
1.55767E-6	-63.362991
1.557715E-6	-69.090369
1.55776E-6	-71.371533
1.557805E-6	-71.650074
1.55785E-6	-70.224136
1.557895E-6	-65.54863
1.55794E-6	-56.254349
1.557985E-6	-40.065197
1.55803E-6	-33.388501
1.558075E-6	-30.137659
1.55812E-6	-29.093893
1.558165E-6	-28.863908
1.55821E-6	-28.847224
1.558255E-6	-28.867253
1.5583E-6	-28.92112
1.558345E-6	-29.694003
1.55839E-6	-32.543008
1.558435E-6	-39.259153
1.55848E-6	-49.574245
1.558525E-6	-59.333014
1.55857E-6	-64.960732
1.558615E-6	-69.473061
1.55866E-6	-70.978339
1.558705E-6	-71.583903
1.55875E-6	-67.263044
1.558795E-6	-60.524193
1.55884E-6	-56.348866
1.558885E-6	-54.749552
1.55893E-6	-54.332091
1.558975E-6	-54.275931
1.55902E-6	-54.278257
1.559065E-6	-54.280584
1.55911E-6	-54.281748
1.559155E-6	-54.49894
1.5592E-6	-55.628839
1.559245E-6	-58.620133
1.55929E-6	-63.567448
1.559335E-6	-69.318141
1.55938E-6	-71.649439
1.559425E-6	-71.467278
1.55947E-6	-70.100165
1.559515E-6	-65.312097
1.55956E-6	-55.759355
1.559605E-6	-39.566377
1.55965E-6	-32.918341
1.559695E-6	-29.956786
1.55974E-6	-29.041335
1.559785E-6	-28.877302
1.55983E-6	-28.910969
1.559875E-6	-28.968807
1.55992E-6	-29.041335
1.559965E-6	-29.800533
1.56001E-6	-32.656003
1.560055E-6	-39.318141
1.5601E-6	-49.484616
1.560145E-6	-59.496202
1.56019E-6	-64.985299
1.560235E-6	-69.637705
1.56028E-6	-71.175324
1.560325E-6	-71.717914
1.56037E-6	-68.735439
1.560415E-6	-61.337127
1.56046E-6	-56.987529
1.560505E-6	-55.313573
1.56055E-6	-54.867824
1.560595E-6	-54.814861
1.56064E-6	-54.824083
1.560685E-6	-54.839938
1.56073E-6	-54.862498
1.560775E-6	-55.066814
1.56082E-6	-56.154674
1.560865E-6	-58.992849
1.56091E-6	-63.750994
1.560955E-6	-69.389247
1.561E-6	-71.383461
1.561045E-6	-71.857524
1.56109E-6	-70.439757
1.561135E-6	-65.977386
1.56118E-6	-57.099654
1.561225E-6	-40.628835
1.56127E-6	-33.35264
1.561315E-6	-30.041017
1.56136E-6	-29.027427
1.561405E-6	-28.860566
1.56145E-6	-28.894103
1.561495E-6	-28.955129
1.56154E-6	-29.051796
1.561585E-6	-29.714287
1.56163E-6	-32.31732
1.561675E-6	-38.655041
1.56172E-6	-48.85389
1.561765E-6	-58.968807
1.56181E-6	-64.534573
1.561855E-6	-69.434763
1.5619E-6	-71.13171
1.561945E-6	-71.962016
1.56199E-6	-69.92679
1.562035E-6	-62.876871
1.56208E-6	-58.428456
1.562125E-6	-56.302277
1.56217E-6	-55.728386
1.562215E-6	-55.644741
1.56226E-6	-55.660702
1.562305E-6	-55.699249
1.56235E-6	-55.713793
1.562395E-6	-55.861975
1.56244E-6	-56.685727
1.562485E-6	-59.118639
1.56253E-6	-63.23215
1.562575E-6	-68.972234
1.56262E-6	-71.582027
1.562665E-6	-72.012803
1.56271E-6	-71.169066
1.562755E-6	-67.473897
1.5628E-6	-60.442642
1.562845E-6	-43.658251
1.56289E-6	-34.677554
1.562935E-6	-30.532531
1.56298E-6	-29.079815
1.563025E-6	-28.830604
1.56307E-6	-28.85389
1.563115E-6	-28.938091
1.56316E-6	-29.058784
1.563205E-6	-29.500071
1.56325E-6	-31.643094
1.563295E-6	-36.790233
1.56334E-6	-46.462761
1.563385E-6	-57.013652
1.56343E-6	-63.178549
1.563475E-6	-68.674202
