Wavelength (nm)	Power (dBm)
1.525E-6	-79.069287
1.525045E-6	-78.972234
1.52509E-6	-79.570309
1.525135E-6	-80.429197
1.52518E-6	-83.153341
1.525225E-6	-89.783973
1.52527E-6	-95.427238
1.525315E-6	-87.380238
1.52536E-6	-120
1.525405E-6	-89.943906
1.52545E-6	-120
1.525495E-6	-86.852903
1.52554E-6	-80.406247
1.525585E-6	-78.92112
1.52563E-6	-77.85421
1.525675E-6	-78.010681
1.52572E-6	-77.059749
1.525765E-6	-77.244583
1.52581E-6	-77.870138
1.525855E-6	-77.74174
1.5259E-6	-79.255493
1.525945E-6	-81.891628
1.52599E-6	-87.035542
1.526035E-6	-88.483238
1.52608E-6	-120
1.526125E-6	-95.939711
1.52617E-6	-88.680607
1.526215E-6	-120
1.52626E-6	-83.639135
1.526305E-6	-80.31097
1.52635E-6	-76.933606
1.526395E-6	-76.369524
1.52644E-6	-76.216021
1.526485E-6	-76.057235
1.52653E-6	-76.460838
1.526575E-6	-75.893915
1.52662E-6	-76.428277
1.526665E-6	-77.002748
1.52671E-6	-79.722428
1.526755E-6	-83.748934
1.5268E-6	-87.687854
1.526845E-6	-92.914941
1.52689E-6	-89.922522
1.526935E-6	-89.645703
1.52698E-6	-88.007935
1.527025E-6	-85.367044
1.52707E-6	-80.466753
1.527115E-6	-76.615435
1.52716E-6	-75.340226
1.527205E-6	-75.000381
1.52725E-6	-74.846561
1.527295E-6	-74.845236
1.52734E-6	-74.759936
1.527385E-6	-74.55932
1.52743E-6	-75.550189
1.527475E-6	-77.599502
1.52752E-6	-81.494763
1.527565E-6	-84.873156
1.52761E-6	-88.810742
1.527655E-6	-91.074046
1.5277E-6	-89.657727
1.527745E-6	-89.597934
1.52779E-6	-86.942188
1.527835E-6	-79.995659
1.52788E-6	-76.243364
1.527925E-6	-74.55932
1.52797E-6	-74.030732
1.528015E-6	-73.879583
1.52806E-6	-73.870043
1.528105E-6	-73.924378
1.52815E-6	-73.908326
1.528195E-6	-74.240044
1.52824E-6	-76.004993
1.528285E-6	-79.027427
1.52833E-6	-84.719837
1.528375E-6	-87.004927
1.52842E-6	-120
1.528465E-6	-89.730584
1.52851E-6	-93.004224
1.528555E-6	-87.632109
1.5286E-6	-81.54964
1.528645E-6	-75.875395
1.52869E-6	-74.101621
1.528735E-6	-73.236723
1.52878E-6	-73.415116
1.528825E-6	-73.005959
1.52887E-6	-73.41607
1.528915E-6	-73.114022
1.52896E-6	-73.365818
1.529005E-6	-74.473318
1.52905E-6	-77.718564
1.529095E-6	-82.407856
1.52914E-6	-90.64896
1.529185E-6	-95.893915
1.52923E-6	-120
1.529275E-6	-92.487979
1.52932E-6	-88.326827
1.529365E-6	-82.507276
1.52941E-6	-76.468535
1.529455E-6	-74.093811
1.5295E-6	-73.005959
1.529545E-6	-72.504183
1.52959E-6	-72.580609
1.529635E-6	-72.569608
1.52968E-6	-72.524328
1.529725E-6	-72.575105
1.52977E-6	-73.518352
1.529815E-6	-76.062494
1.52986E-6	-79.808837
1.529905E-6	-86.382722
1.52995E-6	-87.822529
1.529995E-6	-89.694003
1.53004E-6	-91.784865
1.530085E-6	-88.187282
1.53013E-6	-84.994891
1.530175E-6	-79.255493
1.53022E-6	-74.278257
1.530265E-6	-72.700257
1.53031E-6	-72.423004
1.530355E-6	-72.315099
1.5304E-6	-72.227907
1.530445E-6	-72.34257
1.53049E-6	-72.136035
1.530535E-6	-72.633645
1.53058E-6	-74.470885
1.530625E-6	-79.093893
1.53067E-6	-83.102473
1.530715E-6	-86.808939
1.53076E-6	-91.101942
1.530805E-6	-90.935572
1.53085E-6	-91.300646
1.530895E-6	-87.878124
1.53094E-6	-81.862856
1.530985E-6	-75.0515
1.53103E-6	-72.874345
1.531075E-6	-72.092927
1.53112E-6	-72.12823
1.531165E-6	-72.214147
1.53121E-6	-72.089413
1.531255E-6	-71.908445
1.5313E-6	-72.292216
1.531345E-6	-73.589227
1.53139E-6	-76.522798
1.531435E-6	-80.467237
1.53148E-6	-89.017025
1.531525E-6	-90.161934
1.53157E-6	-92.148838
1.531615E-6	-93.842603
1.53166E-6	-95.254924
1.531705E-6	-82.073282
1.53175E-6	-76.464684
1.531795E-6	-73.392294
1.53184E-6	-72.445825
1.531885E-6	-72.076083
1.53193E-6	-72.131067
1.531975E-6	-72.082392
1.53202E-6	-71.941595
1.532065E-6	-72.071183
1.53211E-6	-72.874345
1.532155E-6	-75.385015
1.5322E-6	-78.968807
1.532245E-6	-83.411304
1.53229E-6	-90.158329
1.532335E-6	-96.110112
1.53238E-6	-91.713401
1.532425E-6	-93.983745
1.53247E-6	-88.193008
1.532515E-6	-79.30702
1.53256E-6	-74.489161
1.532605E-6	-72.740884
1.53265E-6	-72.219211
1.532695E-6	-72.287066
1.53274E-6	-72.253371
1.532785E-6	-72.12823
1.53283E-6	-72.225732
1.532875E-6	-72.524328
1.53292E-6	-74.373503
1.532965E-6	-78.486301
1.53301E-6	-83.087416
1.533055E-6	-87.380238
1.5331E-6	-92.992963
1.533145E-6	-91.702461
1.53319E-6	-90.779496
1.533235E-6	-120
1.53328E-6	-83.000756
1.533325E-6	-75.949953
1.53337E-6	-73.626103
1.533415E-6	-72.905604
1.53346E-6	-72.825792
1.533505E-6	-72.433639
1.53355E-6	-72.656003
1.533595E-6	-72.772016
1.53364E-6	-73.059215
1.533685E-6	-73.932963
1.53373E-6	-76.33577
1.533775E-6	-80.677292
1.53382E-6	-85.32836
1.533865E-6	-102.21487
1.53391E-6	-92.441251
1.533955E-6	-120
1.534E-6	-89.665762
1.534045E-6	-87.814645
1.53409E-6	-79.480761
1.534135E-6	-74.962093
1.53418E-6	-73.878522
1.534225E-6	-73.556599
1.53427E-6	-73.332013
1.534315E-6	-73.392294
1.53436E-6	-73.462088
1.534405E-6	-73.555614
1.53445E-6	-74.156688
1.534495E-6	-76.126102
1.53454E-6	-79.767475
1.534585E-6	-83.062731
1.53463E-6	-98.696662
1.534675E-6	-92.63046
1.53472E-6	-88.591778
1.534765E-6	-95.583049
1.53481E-6	-88.22175
1.534855E-6	-82.136746
1.5349E-6	-77.307206
1.534945E-6	-74.805658
1.53499E-6	-74.22853
1.535035E-6	-74.226231
1.53508E-6	-74.153296
1.535125E-6	-74.115042
1.53517E-6	-74.325031
1.535215E-6	-74.492826
1.53526E-6	-75.579908
1.535305E-6	-78.635966
1.53535E-6	-83.595186
1.535395E-6	-88.06319
1.53544E-6	-120
1.535485E-6	-88.917733
1.53553E-6	-92.819968
1.535575E-6	-120
1.53562E-6	-88.138916
1.535665E-6	-80.659057
1.53571E-6	-76.466609
1.535755E-6	-75.077985
1.5358E-6	-74.681381
1.535845E-6	-74.719837
1.53589E-6	-74.989407
1.535935E-6	-74.933597
1.53598E-6	-74.875825
1.536025E-6	-75.373026
1.53607E-6	-77.744323
1.536115E-6	-80.066079
1.53616E-6	-86.22876
1.536205E-6	-93.077702
1.53625E-6	-89.076303
1.536295E-6	-84.464811
1.53634E-6	-95.970512
1.536385E-6	-86.861328
1.53643E-6	-83.839448
1.536475E-6	-78.794261
1.53652E-6	-75.702477
1.536565E-6	-75.625666
1.53661E-6	-75.287083
1.536655E-6	-75.329842
1.5367E-6	-75.472938
1.536745E-6	-75.397037
1.53679E-6	-75.764265
1.536835E-6	-76.687752
1.53688E-6	-79.714287
1.536925E-6	-83.717133
1.53697E-6	-100.771708
1.537015E-6	-88.76475
1.53706E-6	-92.227907
1.537105E-6	-89.948195
1.53715E-6	-96.695862
1.537195E-6	-88.71924
1.53724E-6	-81.568919
1.537285E-6	-77.309543
1.53733E-6	-76.178028
1.537375E-6	-76.092415
1.53742E-6	-75.633604
1.537465E-6	-76.101254
1.53751E-6	-75.924392
1.537555E-6	-75.686362
1.5376E-6	-76.145725
1.537645E-6	-78.193008
1.53769E-6	-81.222257
1.537735E-6	-85.86365
1.53778E-6	-87.728849
1.537825E-6	-120
1.53787E-6	-120
1.537915E-6	-83.186683
1.53796E-6	-91.28252
1.538005E-6	-84.745664
1.53805E-6	-79.657727
1.538095E-6	-77.221617
1.53814E-6	-75.958508
1.538185E-6	-75.812017
1.53823E-6	-76.278247
1.538275E-6	-75.572068
1.53832E-6	-75.932895
1.538365E-6	-75.808707
1.53841E-6	-76.90157
1.538455E-6	-79.020489
1.5385E-6	-82.505729
1.538545E-6	-89.625735
1.53859E-6	-93.380927
1.538635E-6	-91.514414
1.53868E-6	-92.456517
1.538725E-6	-120
1.53877E-6	-90.331077
1.538815E-6	-81.641193
1.53886E-6	-78.127614
1.538905E-6	-76.118988
1.53895E-6	-75.955084
1.538995E-6	-75.996347
1.53904E-6	-75.751184
1.539085E-6	-76.097716
1.53913E-6	-75.810362
1.539175E-6	-76.483969
1.53922E-6	-78.377344
1.539265E-6	-80.433994
1.53931E-6	-86.649435
1.539355E-6	-86.91009
1.5394E-6	-90.195421
1.539445E-6	-120
1.53949E-6	-87.508016
1.539535E-6	-88.392314
1.53958E-6	-83.936186
1.539625E-6	-79.168559
1.53967E-6	-77.002748
1.539715E-6	-76.143937
1.53976E-6	-75.603516
1.539805E-6	-75.691191
1.53985E-6	-75.612995
1.539895E-6	-75.941416
1.53994E-6	-75.655908
1.539985E-6	-76.617428
1.54003E-6	-79.645703
1.540075E-6	-83.147062
1.54012E-6	-87.196493
1.540165E-6	-94.284076
1.54021E-6	-90.087296
1.540255E-6	-103.082998
1.5403E-6	-90.310503
1.540345E-6	-88.121974
1.54039E-6	-81.662793
1.540435E-6	-78.093882
1.54048E-6	-75.989443
1.540525E-6	-75.562678
1.54057E-6	-75.785606
1.540615E-6	-75.617742
1.54066E-6	-75.145625
1.540705E-6	-75.373026
1.54075E-6	-75.744658
1.540795E-6	-77.662426
1.54084E-6	-79.909743
1.540885E-6	-83.588235
1.54093E-6	-90.346572
1.540975E-6	-95.025175
1.54102E-6	-120
1.541065E-6	-90.331546
1.54111E-6	-92.66562
1.541155E-6	-84.907975
1.5412E-6	-79.922522
1.541245E-6	-76.579723
1.54129E-6	-75.275361
1.541335E-6	-74.9026
1.54138E-6	-74.728859
1.541425E-6	-74.930893
1.54147E-6	-74.851867
1.541515E-6	-75.208568
1.54156E-6	-76.099485
1.541605E-6	-78.198741
1.54165E-6	-80.840201
1.541695E-6	-85.692801
1.54174E-6	-88.501653
1.541785E-6	-91.587031
1.54183E-6	-90.704789
1.541875E-6	-95.064026
1.54192E-6	-88.335699
1.541965E-6	-82.999889
1.54201E-6	-78.204482
1.542055E-6	-75.609833
1.5421E-6	-75.005879
1.542145E-6	-74.833324
1.54219E-6	-74.766438
1.542235E-6	-74.805658
1.54228E-6	-74.648325
1.542325E-6	-75.110265
1.54237E-6	-76.074789
1.542415E-6	-79.24453
1.54246E-6	-82.73762
1.542505E-6	-89.108016
1.54255E-6	-92.521999
1.542595E-6	-88.437538
1.54264E-6	-87.035542
1.542685E-6	-103.07065
1.54273E-6	-87.256112
1.542775E-6	-79.808837
1.54282E-6	-76.167233
1.542865E-6	-75.148467
1.54291E-6	-74.723701
1.542955E-6	-74.615519
1.543E-6	-74.66355
1.543045E-6	-74.516106
1.54309E-6	-74.754741
1.543135E-6	-75.221555
1.54318E-6	-77.07301
1.543225E-6	-79.783973
1.54327E-6	-85.644741
1.543315E-6	-86.944337
1.54336E-6	-120
1.543405E-6	-120
1.54345E-6	-86.187044
1.543495E-6	-94.196453
1.54354E-6	-82.320283
1.543585E-6	-78.218867
1.54363E-6	-75.344684
1.543675E-6	-74.748256
1.54372E-6	-74.309774
1.543765E-6	-74.709548
1.54381E-6	-74.361631
1.543855E-6	-74.345064
1.5439E-6	-74.574235
1.543945E-6	-75.62091
1.54399E-6	-77.46662
1.544035E-6	-80.871405
1.54408E-6	-83.769576
1.544125E-6	-88.620133
1.54417E-6	-89.969705
1.544215E-6	-92.370965
1.54426E-6	-88.951716
1.544305E-6	-85.37602
1.54435E-6	-81.055732
1.544395E-6	-79.125735
1.54444E-6	-74.930893
1.544485E-6	-73.589227
1.54453E-6	-74.671183
1.544575E-6	-74.341522
1.54462E-6	-74.571746
1.544665E-6	-74.441803
1.54471E-6	-74.647059
1.544755E-6	-76.003263
1.5448E-6	-79.404366
1.544845E-6	-81.874877
1.54489E-6	-88.880657
1.544935E-6	-93.358283
1.54498E-6	-85.999804
1.545025E-6	-83.431355
1.54507E-6	-75.367044
1.545115E-6	-62.51812
1.54516E-6	-48.560489
1.545205E-6	-42.019021
1.54525E-6	-39.842212
1.545295E-6	-39.344203
1.54534E-6	-39.273825
1.545385E-6	-39.259153
1.54543E-6	-39.240882
1.545475E-6	-39.629721
1.54552E-6	-41.61088
1.545565E-6	-46.673596
1.54561E-6	-55.922693
1.545655E-6	-64.694161
1.5457E-6	-72.102783
1.545745E-6	-78.677403
1.54579E-6	-82.100669
1.545835E-6	-85.44546
1.54588E-6	-87.024583
1.545925E-6	-83.32547
1.54597E-6	-78.699881
1.546015E-6	-75.298836
1.54606E-6	-74.615519
1.546105E-6	-74.385408
1.54615E-6	-74.218194
1.546195E-6	-74.342702
1.54624E-6	-74.285241
1.546285E-6	-74.445428
1.54633E-6	-75.175552
1.546375E-6	-77.473897
1.54642E-6	-80.074907
1.546465E-6	-85.383514
1.54651E-6	-87.988761
1.546555E-6	-86.524748
1.5466E-6	-84.917397
1.546645E-6	-79.013563
1.54669E-6	-70.203606
1.546735E-6	-53.382819
1.54678E-6	-43.773716
1.546825E-6	-40.498787
1.54687E-6	-39.393022
1.546915E-6	-39.219058
1.54696E-6	-39.182927
1.547005E-6	-39.157813
1.54705E-6	-39.314431
1.547095E-6	-40.434474
1.54714E-6	-43.84892
1.547185E-6	-50.926962
1.54723E-6	-62.187474
1.547275E-6	-69.657727
1.54732E-6	-75.867002
1.547365E-6	-80.484682
1.54741E-6	-84.021952
1.547455E-6	-87.086311
1.5475E-6	-87.13319
1.547545E-6	-80.027447
1.54759E-6	-76.03452
1.547635E-6	-74.778167
1.54768E-6	-74.410516
1.547725E-6	-74.333269
1.54777E-6	-74.265482
1.547815E-6	-74.310946
1.54786E-6	-74.439388
1.547905E-6	-74.636941
1.54795E-6	-76.298572
1.547995E-6	-79.262816
1.54804E-6	-83.89979
1.548085E-6	-87.068585
1.54813E-6	-89.442395
1.548175E-6	-86.507225
1.54822E-6	-82.499547
1.548265E-6	-74.618034
1.54831E-6	-61.046327
1.548355E-6	-47.862167
1.5484E-6	-41.641826
1.548445E-6	-39.621752
1.54849E-6	-39.197344
1.548535E-6	-39.115095
1.54858E-6	-39.097419
1.548625E-6	-39.115095
1.54867E-6	-39.542859
1.548715E-6	-41.664067
1.54876E-6	-46.93575
1.548805E-6	-56.720284
1.54885E-6	-64.877159
1.548895E-6	-72.354503
1.54894E-6	-78.820662
1.548985E-6	-83.143478
1.54903E-6	-85.835259
1.549075E-6	-88.517059
1.54912E-6	-83.160529
1.549165E-6	-79.175737
1.54921E-6	-75.598784
1.549255E-6	-74.616777
1.5493E-6	-74.568014
1.549345E-6	-74.102737
1.54939E-6	-74.362817
1.549435E-6	-74.555599
1.54948E-6	-74.420119
1.549525E-6	-75.090588
1.54957E-6	-77.2262
1.549615E-6	-79.969705
1.54966E-6	-84.05718
1.549705E-6	-87.126462
1.54975E-6	-86.96372
1.549795E-6	-84.913356
1.54984E-6	-79.531148
1.549885E-6	-71.011652
1.54993E-6	-54.179366
1.549975E-6	-44.026339
1.55002E-6	-40.445047
1.550065E-6	-39.284862
1.55011E-6	-39.079815
1.550155E-6	-39.051796
1.5502E-6	-39.023957
1.550245E-6	-39.086848
1.55029E-6	-39.842212
1.550335E-6	-42.79262
1.55038E-6	-49.164974
1.550425E-6	-60.545314
1.55047E-6	-67.975117
1.550515E-6	-74.666093
1.55056E-6	-79.842212
1.550605E-6	-84.476969
1.55065E-6	-89.434763
1.550695E-6	-88.077114
1.55074E-6	-80.960965
1.550785E-6	-76.965879
1.55083E-6	-74.803032
1.550875E-6	-74.271284
1.55092E-6	-74.296906
1.550965E-6	-73.945872
1.55101E-6	-74.527177
1.551055E-6	-74.409317
1.5511E-6	-74.058285
1.551145E-6	-75.110265
1.55119E-6	-78.141746
1.551235E-6	-82.178141
1.55128E-6	-89.621752
1.551325E-6	-86.978856
1.55137E-6	-91.684501
1.551415E-6	-120
1.55146E-6	-93.901922
1.551505E-6	-87.097427
1.55155E-6	-80.786778
1.551595E-6	-76.239708
1.55164E-6	-74.408118
1.551685E-6	-73.964226
1.55173E-6	-74.100504
1.551775E-6	-73.794476
1.55182E-6	-73.921163
1.551865E-6	-73.964226
1.55191E-6	-74.177093
1.551955E-6	-75.309147
1.552E-6	-78.716007
1.552045E-6	-82.393514
1.55209E-6	-86.341378
1.552135E-6	-88.598063
1.55218E-6	-84.355707
1.552225E-6	-95.319482
1.55227E-6	-87.6675
1.552315E-6	-88.136088
1.55236E-6	-79.685915
1.552405E-6	-75.611413
1.55245E-6	-74.251588
1.552495E-6	-74.352156
1.55254E-6	-73.934037
1.552585E-6	-73.795516
1.55263E-6	-73.950184
1.552675E-6	-73.921163
1.55272E-6	-74.292236
1.552765E-6	-76.099485
1.55281E-6	-78.648673
1.552855E-6	-82.200429
1.5529E-6	-90.927499
1.552945E-6	-91.191864
1.55299E-6	-97.582046
1.553035E-6	-90.823895
1.55308E-6	-85.533075
1.553125E-6	-86.011923
1.55317E-6	-78.745187
1.553215E-6	-75.064026
1.55326E-6	-74.211317
1.553305E-6	-74.030732
1.55335E-6	-73.753055
1.553395E-6	-73.565473
1.55344E-6	-73.741733
1.553485E-6	-73.610118
1.55353E-6	-74.339162
1.553575E-6	-76.399749
1.55362E-6	-79.538952
1.553665E-6	-84.476969
1.55371E-6	-92.998157
1.553755E-6	-92.629665
1.5538E-6	-88.419392
1.553845E-6	-120
1.55389E-6	-120
1.553935E-6	-84.775558
1.55398E-6	-78.124793
1.554025E-6	-74.859838
1.55407E-6	-73.767507
1.554115E-6	-73.793435
1.55416E-6	-73.616106
1.554205E-6	-74.257372
1.55425E-6	-73.570411
1.554295E-6	-73.72839
1.55434E-6	-74.195312
1.554385E-6	-75.89729
1.55443E-6	-79.867413
1.554475E-6	-84.375882
1.55452E-6	-88.728952
1.554565E-6	-88.535619
1.55461E-6	-91.937522
1.554655E-6	-88.419392
1.5547E-6	-91.418239
1.554745E-6	-83.983745
1.55479E-6	-77.363639
1.554835E-6	-74.555599
1.55488E-6	-73.605135
1.554925E-6	-73.439977
1.55497E-6	-73.359224
1.555015E-6	-73.601153
1.55506E-6	-73.423706
1.555105E-6	-73.773716
1.55515E-6	-74.223933
1.555195E-6	-77.018021
1.55524E-6	-79.393022
1.555285E-6	-83.994627
1.55533E-6	-89.523358
1.555375E-6	-96.225116
1.55542E-6	-90.411495
1.555465E-6	-88.857227
1.55551E-6	-93.012037
1.555555E-6	-82.728656
1.5556E-6	-76.873996
1.555645E-6	-74.436975
1.55569E-6	-73.459198
1.555735E-6	-73.613111
1.55578E-6	-73.581295
1.555825E-6	-73.520305
1.55587E-6	-73.436143
1.555915E-6	-73.409399
1.55596E-6	-74.360445
1.556005E-6	-77.070797
1.55605E-6	-79.19013
1.556095E-6	-90.83862
1.55614E-6	-87.639669
1.556185E-6	-93.186683
1.55623E-6	-96.081831
1.556275E-6	-93.610118
1.55632E-6	-88.820662
1.556365E-6	-81.5422
1.55641E-6	-76.693833
1.556455E-6	-74.099388
1.5565E-6	-73.541849
1.556545E-6	-73.482376
1.55659E-6	-73.517376
1.556635E-6	-73.428485
1.55668E-6	-73.447655
1.556725E-6	-73.508599
1.55677E-6	-74.524714
1.556815E-6	-76.852903
1.55686E-6	-79.515582
1.556905E-6	-84.666093
1.55695E-6	-94.462383
1.556995E-6	-94.9026
1.55704E-6	-120
1.557085E-6	-89.825493
1.55713E-6	-89.132843
1.557175E-6	-82.165967
1.55722E-6	-76.659486
1.557265E-6	-74.22968
1.55731E-6	-73.283644
1.557355E-6	-73.635121
1.5574E-6	-73.417977
1.557445E-6	-73.488189
1.55749E-6	-73.327339
1.557535E-6	-73.497896
1.55758E-6	-74.243504
1.557625E-6	-76.530605
1.55767E-6	-80.023079
1.557715E-6	-86.897316
1.55776E-6	-91.58578
1.557805E-6	-120
1.55785E-6	-96.138579
1.557895E-6	-96.252517
1.55794E-6	-89.108016
1.557985E-6	-82.196827
1.55803E-6	-76.583677
1.558075E-6	-74.698003
1.55812E-6	-73.67138
1.558165E-6	-73.305901
1.55821E-6	-73.475603
1.558255E-6	-73.424661
1.5583E-6	-73.46884
1.558345E-6	-73.714067
1.55839E-6	-74.523483
1.558435E-6	-76.619421
1.55848E-6	-80.82547
1.558525E-6	-87.219327
1.55857E-6	-87.084092
1.558615E-6	-90.267336
1.55866E-6	-120
1.558705E-6	-90.364483
1.55875E-6	-88.804142
1.558795E-6	-81.888273
1.55884E-6	-76.311555
1.558885E-6	-74.570502
1.55893E-6	-74.091582
1.558975E-6	-73.610118
1.55902E-6	-73.905123
1.559065E-6	-73.861582
1.55911E-6	-73.876401
1.559155E-6	-73.743789
1.5592E-6	-74.686488
1.559245E-6	-77.263044
1.55929E-6	-80.329203
1.559335E-6	-85.628839
1.55938E-6	-91.247072
1.559425E-6	-90.384365
1.55947E-6	-93.478504
1.559515E-6	-88.389316
1.55956E-6	-89.783973
1.559605E-6	-82.280453
1.55965E-6	-76.474316
1.559695E-6	-74.778167
1.55974E-6	-73.92545
1.559785E-6	-74.007721
1.55983E-6	-73.906191
1.559875E-6	-74.087127
1.55992E-6	-74.126258
1.559965E-6	-73.9545
1.56001E-6	-75.221555
1.560055E-6	-76.985359
1.5601E-6	-80.908185
1.560145E-6	-85.625666
1.56019E-6	-95.471407
1.560235E-6	-95.4546
1.56028E-6	-89.788107
1.560325E-6	-92.736804
1.56037E-6	-89.796387
1.560415E-6	-83.130957
1.56046E-6	-76.518899
1.560505E-6	-74.841262
1.56055E-6	-74.281748
1.560595E-6	-74.259687
1.56064E-6	-74.10609
1.560685E-6	-74.27942
1.56073E-6	-74.384216
1.560775E-6	-74.49894
1.56082E-6	-75.343198
1.560865E-6	-77.614521
1.56091E-6	-80.924274
1.560955E-6	-85.244741
1.561E-6	-95.418156
1.561045E-6	-87.87546
1.56109E-6	-90.569509
1.561135E-6	-90.537443
1.56118E-6	-88.576105
1.561225E-6	-83.871102
1.56127E-6	-78.065971
1.561315E-6	-75.128616
1.56136E-6	-74.548166
1.561405E-6	-74.722412
1.56145E-6	-74.796475
1.561495E-6	-74.757337
1.56154E-6	-74.605475
1.561585E-6	-74.814861
1.56163E-6	-75.774102
1.561675E-6	-77.454519
1.56172E-6	-80.918905
1.561765E-6	-86.083593
1.56181E-6	-89.804683
1.561855E-6	-90.60331
1.5619E-6	-88.982529
1.561945E-6	-89.500071
1.56199E-6	-90.844946
1.562035E-6	-84.9485
1.56208E-6	-78.610661
1.562125E-6	-76.29117
1.56217E-6	-75.474469
1.562215E-6	-75.157002
1.56226E-6	-75.021033
1.562305E-6	-75.114493
1.56235E-6	-74.89321
1.562395E-6	-75.045944
1.56244E-6	-75.946536
1.562485E-6	-77.654827
1.56253E-6	-81.351331
1.562575E-6	-88.187282
1.56262E-6	-88.374356
1.562665E-6	-93.240385
1.56271E-6	-120
1.562755E-6	-120
1.5628E-6	-90.775341
1.562845E-6	-84.577972
1.56289E-6	-80.45227
1.562935E-6	-76.401645
1.56298E-6	-75.608253
1.563025E-6	-75.587763
1.56307E-6	-75.807053
1.563115E-6	-75.350636
1.56316E-6	-75.50059
1.563205E-6	-75.627252
1.56325E-6	-76.356366
1.563295E-6	-78.392314
1.56334E-6	-80.961507
1.563385E-6	-85.25638
1.56343E-6	-91.367961
1.563475E-6	-103.064489
1.56352E-6	-90.63788
1.563565E-6	-120
1.56361E-6	-88.604357
1.563655E-6	-85.466817
1.5637E-6	-81.71469
1.563745E-6	-77.269987
