Wavelength (nm)	Power (dBm)
1.525E-6	-68.425432
1.525045E-6	-68.4649
1.52509E-6	-68.85389
1.525135E-6	-70.681355
1.52518E-6	-74.17823
1.525225E-6	-77.846268
1.52527E-6	-78.955129
1.525315E-6	-79.779843
1.52536E-6	-79.484616
1.525405E-6	-79.93962
1.52545E-6	-78.523237
1.525495E-6	-73.491099
1.52554E-6	-69.605859
1.525585E-6	-67.862167
1.52563E-6	-67.32359
1.525675E-6	-67.146678
1.52572E-6	-67.011469
1.525765E-6	-66.753061
1.52581E-6	-66.693833
1.525855E-6	-66.972363
1.5259E-6	-68.632794
1.525945E-6	-71.738604
1.52599E-6	-76.210573
1.526035E-6	-79.034376
1.52608E-6	-79.578184
1.526125E-6	-79.168559
1.52617E-6	-79.833845
1.526215E-6	-78.897471
1.52626E-6	-73.202996
1.526305E-6	-68.944898
1.52635E-6	-66.645421
1.526395E-6	-65.948245
1.52644E-6	-65.780672
1.526485E-6	-65.639965
1.52653E-6	-65.561115
1.526575E-6	-65.434821
1.52662E-6	-65.646335
1.526665E-6	-66.912222
1.52671E-6	-69.804683
1.526755E-6	-74.17255
1.5268E-6	-78.486301
1.526845E-6	-79.336741
1.52689E-6	-79.240882
1.526935E-6	-79.858997
1.52698E-6	-78.548036
1.527025E-6	-74.133002
1.52707E-6	-68.728952
1.527115E-6	-65.720273
1.52716E-6	-64.771647
1.527205E-6	-64.509967
1.52725E-6	-64.412914
1.527295E-6	-64.337983
1.52734E-6	-64.30392
1.527385E-6	-64.393761
1.52743E-6	-65.234582
1.527475E-6	-67.838341
1.52752E-6	-71.794045
1.527565E-6	-76.937895
1.52761E-6	-78.401322
1.527655E-6	-78.315025
1.5277E-6	-79.97402
1.527745E-6	-79.129288
1.52779E-6	-75.09199
1.527835E-6	-69.175737
1.52788E-6	-65.349147
1.527925E-6	-63.91474
1.52797E-6	-63.578324
1.528015E-6	-63.418932
1.52806E-6	-63.421795
1.528105E-6	-63.383766
1.52815E-6	-63.436143
1.528195E-6	-63.91795
1.52824E-6	-65.972229
1.528285E-6	-69.601894
1.52833E-6	-74.796475
1.528375E-6	-77.809397
1.52842E-6	-78.37137
1.528465E-6	-77.500682
1.52851E-6	-74.956651
1.528555E-6	-66.556077
1.5286E-6	-51.349553
1.528645E-6	-42.371714
1.52869E-6	-39.318141
1.528735E-6	-38.359447
1.52878E-6	-38.071539
1.528825E-6	-37.966951
1.52887E-6	-37.843624
1.528915E-6	-37.94525
1.52896E-6	-39.351678
1.529005E-6	-43.371478
1.52905E-6	-51.55958
1.529095E-6	-62.228633
1.52914E-6	-69.017025
1.529185E-6	-74.072682
1.52923E-6	-76.720284
1.529275E-6	-75.694412
1.52932E-6	-70.599818
1.529365E-6	-55.187007
1.52941E-6	-43.94695
1.529455E-6	-39.875846
1.5295E-6	-38.329782
1.529545E-6	-37.950665
1.52959E-6	-37.846268
1.529635E-6	-37.71343
1.52968E-6	-37.710866
1.529725E-6	-38.498578
1.52977E-6	-41.396021
1.529815E-6	-48.259402
1.52986E-6	-58.900841
1.529905E-6	-66.466609
1.52995E-6	-72.31214
1.529995E-6	-75.977386
1.53004E-6	-76.842395
1.530085E-6	-72.680891
1.53013E-6	-61.096349
1.530175E-6	-47.18285
1.53022E-6	-40.785216
1.530265E-6	-38.59492
1.53031E-6	-38.06041
1.530355E-6	-37.880789
1.5304E-6	-37.827793
1.530445E-6	-37.772835
1.53049E-6	-38.119156
1.530535E-6	-40.0975
1.53058E-6	-45.218666
1.530625E-6	-55.043169
1.53067E-6	-63.214816
1.530715E-6	-70.290955
1.53076E-6	-74.988038
1.530805E-6	-76.560009
1.53085E-6	-74.213608
1.530895E-6	-66.339508
1.53094E-6	-50.946899
1.530985E-6	-42.172408
1.53103E-6	-39.164974
1.531075E-6	-38.306195
1.53112E-6	-38.091083
1.531165E-6	-38.005191
1.53121E-6	-37.964232
1.531255E-6	-38.079904
1.5313E-6	-39.310724
1.531345E-6	-42.933675
1.53139E-6	-50.668672
1.531435E-6	-61.879561
1.53148E-6	-68.560489
1.531525E-6	-73.800723
1.53157E-6	-76.407338
1.531615E-6	-75.616159
1.53166E-6	-70.692547
1.531705E-6	-55.499049
1.53175E-6	-43.975059
1.531795E-6	-39.755143
1.53184E-6	-38.193008
1.531885E-6	-37.867479
1.53193E-6	-37.788467
1.531975E-6	-37.788467
1.53202E-6	-37.864822
1.532065E-6	-38.544928
1.53211E-6	-41.244757
1.532155E-6	-47.788467
1.5322E-6	-58.395315
1.532245E-6	-65.865326
1.53229E-6	-71.751585
1.532335E-6	-75.75445
1.53238E-6	-75.943122
1.532425E-6	-72.914092
1.53247E-6	-62.798407
1.532515E-6	-47.931741
1.53256E-6	-40.817599
1.532605E-6	-38.520147
1.53265E-6	-37.87546
1.532695E-6	-37.822529
1.53274E-6	-37.840982
1.532785E-6	-37.859513
1.53283E-6	-38.190144
1.532875E-6	-39.918258
1.53292E-6	-44.415314
1.532965E-6	-53.328273
1.53301E-6	-62.30106
1.533055E-6	-69.480761
1.5331E-6	-74.628108
1.533145E-6	-76.390281
1.53319E-6	-74.943075
1.533235E-6	-69.179331
1.53328E-6	-52.780246
1.533325E-6	-42.855026
1.53337E-6	-39.266483
1.533415E-6	-38.027194
1.53346E-6	-37.833064
1.533505E-6	-37.891466
1.53355E-6	-37.9588
1.533595E-6	-38.124793
1.53364E-6	-39.058784
1.533685E-6	-42.116195
1.53373E-6	-49.229957
1.533775E-6	-59.821323
1.53382E-6	-67.10411
1.533865E-6	-72.748237
1.53391E-6	-76.053732
1.533955E-6	-76.285627
1.534E-6	-72.370965
1.534045E-6	-60.963133
1.53409E-6	-46.813107
1.534135E-6	-40.389588
1.53418E-6	-38.285661
1.534225E-6	-37.830428
1.53427E-6	-37.85421
1.534315E-6	-37.910215
1.53436E-6	-38.016179
1.534405E-6	-38.563608
1.53445E-6	-40.721679
1.534495E-6	-45.941416
1.53454E-6	-55.601938
1.534585E-6	-63.963145
1.53463E-6	-70.662597
1.534675E-6	-75.331324
1.53472E-6	-77.086311
1.534765E-6	-74.70698
1.53481E-6	-68.153086
1.534855E-6	-51.571412
1.5349E-6	-42.196107
1.534945E-6	-38.948306
1.53499E-6	-37.975117
1.535035E-6	-37.923656
1.53508E-6	-37.983298
1.535125E-6	-38.057633
1.53517E-6	-38.350526
1.535215E-6	-39.554602
1.53526E-6	-43.125602
1.535305E-6	-50.33014
1.53535E-6	-61.646265
1.535395E-6	-68.486301
1.53544E-6	-73.687592
1.535485E-6	-76.675615
1.53553E-6	-76.154674
1.535575E-6	-72.009353
1.53562E-6	-59.617774
1.535665E-6	-46.38839
1.53571E-6	-40.142593
1.535755E-6	-38.175853
1.5358E-6	-37.75726
1.535845E-6	-37.822529
1.53589E-6	-37.880789
1.535935E-6	-38.035475
1.53598E-6	-38.604357
1.536025E-6	-40.890023
1.53607E-6	-46.371407
1.536115E-6	-56.274562
1.53616E-6	-64.516106
1.536205E-6	-71.113713
1.53625E-6	-75.887171
1.536295E-6	-76.392173
1.53634E-6	-74.73144
1.536385E-6	-68.107905
1.53643E-6	-51.680663
1.536475E-6	-42.253371
1.53652E-6	-38.982529
1.536565E-6	-37.972393
1.53661E-6	-37.851562
1.536655E-6	-37.89414
1.5367E-6	-37.991495
1.536745E-6	-38.153086
1.53679E-6	-39.370422
1.536835E-6	-42.994693
1.53688E-6	-50.540393
1.536925E-6	-61.868195
1.53697E-6	-68.44664
1.537015E-6	-73.826851
1.53706E-6	-76.742791
1.537105E-6	-76.217839
1.53715E-6	-72.335128
1.537195E-6	-60.277972
1.53724E-6	-46.623411
1.537285E-6	-40.392439
1.53733E-6	-38.365404
1.537375E-6	-37.918275
1.53742E-6	-37.888795
1.537465E-6	-37.939841
1.53751E-6	-38.007935
1.537555E-6	-38.471004
1.5376E-6	-40.725783
1.537645E-6	-46.232406
1.53769E-6	-56.19427
1.537735E-6	-64.45632
1.53778E-6	-70.997421
1.537825E-6	-75.30178
1.53787E-6	-77.002748
1.537915E-6	-74.878495
1.53796E-6	-69.251836
1.538005E-6	-52.908997
1.53805E-6	-42.823295
1.538095E-6	-39.215432
1.53814E-6	-38.054857
1.538185E-6	-37.918275
1.53823E-6	-37.90485
1.538275E-6	-37.864822
1.53832E-6	-37.977842
1.538365E-6	-39.062282
1.53841E-6	-42.557853
1.538455E-6	-49.804683
1.5385E-6	-61.023729
1.538545E-6	-68.052082
1.53859E-6	-73.133637
1.538635E-6	-76.129663
1.53868E-6	-76.274562
1.538725E-6	-72.860896
1.53877E-6	-61.465452
1.538815E-6	-47.687854
1.53886E-6	-40.815503
1.538905E-6	-38.626459
1.53895E-6	-38.105097
1.538995E-6	-37.964232
1.53904E-6	-37.939841
1.539085E-6	-37.947956
1.53913E-6	-38.259402
1.539175E-6	-40.266874
1.53922E-6	-45.284149
1.539265E-6	-54.970269
1.53931E-6	-63.462088
1.539355E-6	-70.294207
1.5394E-6	-75.084982
1.539445E-6	-76.970201
1.53949E-6	-75.437858
1.539535E-6	-69.93962
1.53958E-6	-53.662287
1.539625E-6	-43.292904
1.53967E-6	-39.605859
1.539715E-6	-38.271053
1.53976E-6	-38.038238
1.539805E-6	-38.005191
1.53985E-6	-37.942545
1.539895E-6	-38.005191
1.53994E-6	-38.890738
1.539985E-6	-42.053029
1.54003E-6	-48.820662
1.540075E-6	-60.245222
1.54012E-6	-67.311881
1.540165E-6	-72.866775
1.54021E-6	-75.958508
1.540255E-6	-76.593576
1.5403E-6	-73.440936
1.540345E-6	-63.835245
1.54039E-6	-48.758219
1.540435E-6	-41.301818
1.54048E-6	-38.745187
1.540525E-6	-38.046539
1.54057E-6	-37.872798
1.540615E-6	-37.822529
1.54066E-6	-37.798919
1.540705E-6	-38.068754
1.54075E-6	-39.779843
1.540795E-6	-44.309774
1.54084E-6	-53.275327
1.540885E-6	-62.010733
1.54093E-6	-69.259153
1.540975E-6	-74.48672
1.54102E-6	-76.362001
1.541065E-6	-75.419668
1.54111E-6	-70.964217
1.541155E-6	-56.172627
1.5412E-6	-44.346245
1.541245E-6	-40.062112
1.54129E-6	-38.498578
1.541335E-6	-38.107905
1.54138E-6	-38.046539
1.541425E-6	-37.964232
1.54147E-6	-38.005191
1.541515E-6	-38.642315
1.54156E-6	-41.342448
1.541605E-6	-47.547342
1.54165E-6	-57.975117
1.541695E-6	-65.537736
1.54174E-6	-71.648169
1.541785E-6	-75.514483
1.54183E-6	-76.720284
1.541875E-6	-74.352156
1.54192E-6	-66.367642
1.541965E-6	-50.626828
1.54201E-6	-41.996266
1.542055E-6	-38.975663
1.5421E-6	-38.065971
1.542145E-6	-37.880789
1.54219E-6	-37.822529
1.542235E-6	-37.785858
1.54228E-6	-37.90217
1.542325E-6	-39.04482
1.54237E-6	-42.652002
1.542415E-6	-50.11441
1.54246E-6	-61.312968
1.542505E-6	-67.972393
1.54255E-6	-73.275327
1.542595E-6	-76.07303
1.54264E-6	-76.263525
1.542685E-6	-72.523552
1.54273E-6	-60.879374
1.542775E-6	-47.246886
1.54282E-6	-40.748427
1.542865E-6	-38.585502
1.54291E-6	-38.074325
1.542955E-6	-37.983298
1.543E-6	-37.920965
1.543045E-6	-37.915586
1.54309E-6	-38.239087
1.543135E-6	-40.07977
1.54318E-6	-44.933597
1.543225E-6	-54.403327
1.54327E-6	-62.864255
1.543315E-6	-70.045842
1.54336E-6	-75.106041
1.543405E-6	-76.651443
1.54345E-6	-75.204247
1.543495E-6	-70.03182
1.54354E-6	-54.544455
1.543585E-6	-43.575355
1.54363E-6	-39.726504
1.543675E-6	-38.315025
1.54372E-6	-37.999707
1.543765E-6	-37.923656
1.54381E-6	-37.920965
1.543855E-6	-37.969671
1.5439E-6	-38.722475
1.543945E-6	-41.574532
1.54399E-6	-48.198741
1.544035E-6	-58.712777
1.54408E-6	-66.156466
1.544125E-6	-72.2062
1.54417E-6	-75.943122
1.544215E-6	-76.095948
1.54426E-6	-73.978314
1.544305E-6	-65.409092
1.54435E-6	-50.061231
1.544395E-6	-41.771131
1.54444E-6	-38.989406
1.544485E-6	-38.16161
1.54453E-6	-37.988761
1.544575E-6	-37.947956
1.54462E-6	-37.93714
1.544665E-6	-38.082696
1.54471E-6	-39.292235
1.544755E-6	-43.006827
1.5448E-6	-50.999608
1.544845E-6	-62.053726
1.54489E-6	-69.125735
1.544935E-6	-73.926522
1.54498E-6	-76.558043
1.545025E-6	-76.315272
1.54507E-6	-72.2541
1.545115E-6	-60.271957
1.54516E-6	-46.955095
1.545205E-6	-40.582899
1.54525E-6	-38.44664
1.545295E-6	-37.950665
1.54534E-6	-37.85421
1.545385E-6	-37.846268
1.54543E-6	-37.822529
1.545475E-6	-38.178708
1.54552E-6	-39.982663
1.545565E-6	-44.813545
1.54561E-6	-53.77268
1.545655E-6	-62.522775
1.5457E-6	-69.586073
1.545745E-6	-74.66991
1.54579E-6	-76.544302
1.545835E-6	-75.391022
1.54588E-6	-70.22688
1.545925E-6	-54.817493
1.54597E-6	-43.569423
1.546015E-6	-39.605859
1.54606E-6	-38.198741
1.546105E-6	-37.94525
1.54615E-6	-37.910215
1.546195E-6	-37.93444
1.54624E-6	-37.9129
1.546285E-6	-38.477117
1.54633E-6	-41.046327
1.546375E-6	-47.311881
1.54642E-6	-57.687854
1.546465E-6	-65.477534
1.54651E-6	-71.26912
1.546555E-6	-76.101254
1.5466E-6	-76.434006
1.546645E-6	-74.643262
1.54669E-6	-66.946486
1.546735E-6	-51.61088
1.54678E-6	-42.407856
1.546825E-6	-39.19013
1.54687E-6	-38.116341
1.546915E-6	-37.923656
1.54696E-6	-37.896815
1.547005E-6	-37.878124
1.54705E-6	-37.980569
1.547095E-6	-39.051796
1.54714E-6	-42.454223
1.547185E-6	-49.492337
1.54723E-6	-60.72681
1.547275E-6	-67.687854
1.54732E-6	-72.992098
1.547365E-6	-76.29117
1.54741E-6	-76.248853
1.547455E-6	-73.105136
1.5475E-6	-62.53288
1.547545E-6	-48.091083
1.54759E-6	-41.001248
1.547635E-6	-38.585502
1.54768E-6	-38.013429
1.547725E-6	-37.931741
1.54777E-6	-37.883456
1.547815E-6	-37.907532
1.54786E-6	-38.079904
1.547905E-6	-39.492337
1.54795E-6	-43.597174
1.547995E-6	-51.829638
1.54804E-6	-62.609026
1.548085E-6	-69.118639
1.54813E-6	-73.898724
1.548175E-6	-76.29672
1.54822E-6	-75.437858
1.548265E-6	-71.553986
1.54831E-6	-58.431481
1.548355E-6	-44.86516
1.5484E-6	-40.269646
1.548445E-6	-38.449678
1.54849E-6	-38.074325
1.548535E-6	-37.994231
1.54858E-6	-37.966951
1.548625E-6	-37.996968
1.54867E-6	-38.359447
1.548715E-6	-40.4072
1.54876E-6	-45.514483
1.548805E-6	-55.021033
1.54885E-6	-63.514448
1.548895E-6	-70.180456
1.54894E-6	-75.30178
1.548985E-6	-76.589614
1.54903E-6	-75.379016
1.549075E-6	-69.755143
1.54912E-6	-54.551881
1.549165E-6	-43.750994
1.54921E-6	-39.665762
1.549255E-6	-38.22175
1.5493E-6	-37.920965
1.549345E-6	-37.891466
1.54939E-6	-37.872798
1.549435E-6	-37.90485
1.54948E-6	-38.477117
1.549525E-6	-40.930188
1.54957E-6	-46.647427
1.549615E-6	-56.794383
1.54966E-6	-64.728859
1.549705E-6	-71.001795
1.54975E-6	-75.212892
1.549795E-6	-76.968039
1.54984E-6	-74.690323
1.549885E-6	-68.288588
1.54993E-6	-52.081691
1.549975E-6	-42.496459
1.55002E-6	-39.229957
1.550065E-6	-38.175853
1.55011E-6	-37.975117
1.550155E-6	-37.953375
1.5502E-6	-37.986029
1.550245E-6	-37.999707
1.55029E-6	-38.745187
1.550335E-6	-41.57578
1.55038E-6	-48.282735
1.550425E-6	-58.894103
1.55047E-6	-66.472388
1.550515E-6	-72.126812
1.55056E-6	-75.757719
1.550605E-6	-76.322715
1.55065E-6	-73.878522
1.550695E-6	-65.263671
1.55074E-6	-49.710223
1.550785E-6	-41.658973
1.55083E-6	-38.900841
1.550875E-6	-38.06319
1.55092E-6	-37.886124
1.550965E-6	-37.878124
1.55101E-6	-37.87546
1.551055E-6	-37.953375
1.5511E-6	-39.062282
1.551145E-6	-42.455752
1.55119E-6	-49.677843
1.551235E-6	-60.907115
1.55128E-6	-67.74174
1.551325E-6	-73.127387
1.55137E-6	-76.422557
1.551415E-6	-76.605486
1.55146E-6	-72.850838
1.551505E-6	-62.685724
1.55155E-6	-48.190144
1.551595E-6	-41.147519
1.55164E-6	-38.774565
1.551685E-6	-38.133261
1.55173E-6	-37.996968
1.551775E-6	-37.996968
1.55182E-6	-37.977842
1.551865E-6	-38.153086
1.55191E-6	-39.582127
1.551955E-6	-43.610118
1.552E-6	-51.636759
1.552045E-6	-62.458046
1.55209E-6	-69.100949
1.552135E-6	-73.970723
1.55218E-6	-76.706021
1.552225E-6	-76.418747
1.55227E-6	-72.3905
1.552315E-6	-60.783655
1.55236E-6	-47.212464
1.552405E-6	-40.742755
1.55245E-6	-38.582368
1.552495E-6	-38.068754
1.55254E-6	-37.988761
1.552585E-6	-37.986029
1.55263E-6	-37.942545
1.552675E-6	-38.195874
1.55272E-6	-39.880069
1.552765E-6	-44.358075
1.55281E-6	-52.982594
1.552855E-6	-61.71469
1.5529E-6	-69.37418
1.552945E-6	-74.366376
1.55299E-6	-77.368375
1.553035E-6	-75.73977
1.55308E-6	-71.090762
1.553125E-6	-56.944337
1.55317E-6	-44.530874
1.553215E-6	-40.065638
1.55326E-6	-38.37137
1.553305E-6	-37.9588
1.55335E-6	-37.915586
1.553395E-6	-37.872798
1.55344E-6	-37.856861
1.553485E-6	-38.250684
1.55353E-6	-40.229627
1.553575E-6	-45.201369
1.55362E-6	-54.403327
1.553665E-6	-62.641617
1.55371E-6	-69.796387
1.553755E-6	-74.813545
1.5538E-6	-76.542343
1.553845E-6	-75.519123
1.55389E-6	-70.291884
1.553935E-6	-55.022413
1.55398E-6	-43.868985
1.554025E-6	-39.858997
1.55407E-6	-38.380334
1.554115E-6	-38.088285
1.55416E-6	-38.035475
1.554205E-6	-37.977842
1.55425E-6	-37.977842
1.554295E-6	-38.4649
1.55434E-6	-40.640395
1.554385E-6	-46.031036
1.55443E-6	-55.808707
1.554475E-6	-63.941565
1.55452E-6	-70.650473
1.554565E-6	-75.124374
1.55461E-6	-77.044329
1.554655E-6	-75.066814
1.5547E-6	-69.314431
1.554745E-6	-53.901922
1.55479E-6	-43.346066
1.554835E-6	-39.641702
1.55488E-6	-38.359447
1.554925E-6	-38.130437
1.55497E-6	-38.079904
1.555015E-6	-38.002448
1.55506E-6	-37.996968
1.555105E-6	-38.523237
1.55515E-6	-40.869813
1.555195E-6	-46.724367
1.55524E-6	-56.857113
1.555285E-6	-64.672456
1.55533E-6	-71.115397
1.555375E-6	-75.40306
1.55542E-6	-76.970201
1.555465E-6	-74.666093
1.55551E-6	-68.271053
1.555555E-6	-52.34257
1.5556E-6	-42.811663
1.555645E-6	-39.408154
1.55569E-6	-38.288588
1.555735E-6	-38.079904
1.55578E-6	-37.999707
1.555825E-6	-37.956087
1.55587E-6	-38.021683
1.555915E-6	-38.526329
1.55596E-6	-40.963133
1.556005E-6	-47.095202
1.55605E-6	-57.267672
1.556095E-6	-64.985299
1.55614E-6	-71.406815
1.556185E-6	-75.856953
1.55623E-6	-76.499459
1.556275E-6	-74.360445
1.55632E-6	-68.065971
1.556365E-6	-51.637392
1.55641E-6	-42.429078
1.556455E-6	-39.182927
1.5565E-6	-38.218867
1.556545E-6	-37.972393
1.55659E-6	-37.920965
1.556635E-6	-37.950665
1.55668E-6	-37.986029
1.556725E-6	-38.664611
1.55677E-6	-41.301232
1.556815E-6	-47.746907
1.55686E-6	-57.999707
1.556905E-6	-65.545515
1.55695E-6	-71.531065
1.556995E-6	-75.949953
1.55704E-6	-76.920763
1.557085E-6	-74.332091
1.55713E-6	-66.790233
1.557175E-6	-51.529211
1.55722E-6	-42.236621
1.557265E-6	-39.129288
1.55731E-6	-38.06041
1.557355E-6	-37.864822
1.5574E-6	-37.838341
1.557445E-6	-37.814645
1.55749E-6	-37.880789
1.557535E-6	-38.635966
1.55758E-6	-41.42366
1.557625E-6	-48.244882
1.55767E-6	-58.526329
1.557715E-6	-65.989443
1.55776E-6	-71.750935
1.557805E-6	-75.751184
1.55785E-6	-76.771607
1.557895E-6	-74.203307
1.55794E-6	-66.38839
1.557985E-6	-50.785216
1.55803E-6	-42.168829
1.558075E-6	-39.051796
1.55812E-6	-38.082696
1.558165E-6	-37.878124
1.55821E-6	-37.835702
1.558255E-6	-37.862167
1.5583E-6	-37.931741
1.558345E-6	-38.642315
1.55839E-6	-41.385851
1.558435E-6	-47.977842
1.55848E-6	-58.224635
1.558525E-6	-65.616159
1.55857E-6	-71.800614
1.558615E-6	-75.678327
1.55866E-6	-76.524748
1.558705E-6	-74.289903
1.55875E-6	-66.665527
1.558795E-6	-51.398417
1.55884E-6	-42.25556
1.558885E-6	-39.122186
1.55893E-6	-38.093882
1.558975E-6	-37.9129
1.55902E-6	-37.93444
1.559065E-6	-37.9588
1.55911E-6	-38.016179
1.559155E-6	-38.768019
1.5592E-6	-41.527359
1.559245E-6	-48.107905
1.55929E-6	-58.501653
1.559335E-6	-65.951663
1.55938E-6	-72.163822
1.559425E-6	-75.999804
1.55947E-6	-76.619421
1.559515E-6	-74.570502
1.55956E-6	-67.975117
1.559605E-6	-51.649439
1.55965E-6	-42.460341
1.559695E-6	-39.154237
1.55974E-6	-38.113527
1.559785E-6	-37.980569
1.55983E-6	-37.966951
1.559875E-6	-38.024438
1.55992E-6	-38.121974
1.559965E-6	-38.857227
1.56001E-6	-41.724369
1.560055E-6	-48.551146
1.5601E-6	-58.840568
1.560145E-6	-66.219657
1.56019E-6	-72.141721
1.560235E-6	-75.893915
1.56028E-6	-77.026773
1.560325E-6	-74.371126
1.56037E-6	-66.800616
1.560415E-6	-51.701818
1.56046E-6	-42.216317
1.560505E-6	-38.992849
1.56055E-6	-37.966951
1.560595E-6	-37.822529
1.56064E-6	-37.848914
1.560685E-6	-37.891466
1.56073E-6	-37.996968
1.560775E-6	-38.696662
1.56082E-6	-41.421852
1.560865E-6	-47.915586
1.56091E-6	-58.317973
1.560955E-6	-65.836924
1.561E-6	-71.793389
1.561045E-6	-75.883803
1.56109E-6	-76.92932
1.561135E-6	-74.503838
1.56118E-6	-68.572978
1.561225E-6	-52.528213
1.56127E-6	-42.633645
1.561315E-6	-39.097419
1.56136E-6	-37.994231
1.561405E-6	-37.862167
1.56145E-6	-37.872798
1.561495E-6	-37.929045
1.56154E-6	-38.016179
1.561585E-6	-38.651856
1.56163E-6	-41.216506
1.561675E-6	-47.413627
1.56172E-6	-57.728849
1.561765E-6	-65.421181
1.56181E-6	-71.461802
1.561855E-6	-75.877075
1.5619E-6	-76.08712
1.561945E-6	-75.015516
1.56199E-6	-69.511699
1.562035E-6	-53.959901
1.56208E-6	-43.09361
1.562125E-6	-39.273825
1.56217E-6	-38.010681
1.562215E-6	-37.809397
1.56226E-6	-37.870138
1.562305E-6	-37.920965
1.56235E-6	-37.999707
1.562395E-6	-38.529423
1.56244E-6	-40.822845
1.562485E-6	-46.293019
1.56253E-6	-56.365761
1.562575E-6	-64.217047
1.56262E-6	-70.840728
1.562665E-6	-75.592483
1.56271E-6	-77.151183
1.562755E-6	-76.062494
1.5628E-6	-70.549748
1.562845E-6	-55.700863
1.56289E-6	-43.686577
1.562935E-6	-39.593977
1.56298E-6	-38.110715
1.563025E-6	-37.87546
1.56307E-6	-37.90485
1.563115E-6	-37.956087
1.56316E-6	-38.065971
1.563205E-6	-38.53872
1.56325E-6	-40.573968
1.563295E-6	-45.805399
1.56334E-6	-55.551748
1.563385E-6	-63.73044
1.56343E-6	-70.348454
1.563475E-6	-75.349147
