Wavelength (nm)	Power (dBm)
1.525E-6	-49.400581
1.525045E-6	-49.288547
1.52509E-6	-49.19013
1.525135E-6	-49.122186
1.52518E-6	-49.051796
1.525225E-6	-48.958544
1.52527E-6	-48.863908
1.525315E-6	-48.76475
1.52536E-6	-48.671002
1.525405E-6	-48.566729
1.52545E-6	-48.443604
1.525495E-6	-48.315025
1.52554E-6	-48.155925
1.525585E-6	-48.010681
1.52563E-6	-47.90217
1.525675E-6	-47.798919
1.52572E-6	-47.700623
1.525765E-6	-47.599502
1.52581E-6	-47.508016
1.525855E-6	-47.452103
1.5259E-6	-47.442452
1.525945E-6	-47.454519
1.52599E-6	-47.420815
1.526035E-6	-47.349462
1.52608E-6	-47.288557
1.526125E-6	-47.221617
1.52617E-6	-47.135435
1.526215E-6	-47.057543
1.52626E-6	-46.92718
1.526305E-6	-46.74074
1.52635E-6	-46.575773
1.526395E-6	-46.460838
1.52644E-6	-46.380834
1.526485E-6	-46.300424
1.52653E-6	-46.225116
1.526575E-6	-46.178028
1.52662E-6	-46.122543
1.526665E-6	-46.161846
1.52671E-6	-46.225116
1.526755E-6	-46.236056
1.5268E-6	-46.241536
1.526845E-6	-46.206945
1.52689E-6	-46.129663
1.526935E-6	-46.050233
1.52698E-6	-46.018863
1.527025E-6	-45.895602
1.52707E-6	-45.696024
1.527115E-6	-45.495969
1.52716E-6	-45.364056
1.527205E-6	-45.313573
1.52725E-6	-45.231684
1.527295E-6	-45.176982
1.52734E-6	-45.162701
1.527385E-6	-45.118725
1.52743E-6	-45.22734
1.527475E-6	-45.349147
1.52752E-6	-45.492891
1.527565E-6	-45.492891
1.52761E-6	-45.474469
1.527655E-6	-45.44546
1.5277E-6	-45.43634
1.527745E-6	-45.364056
1.52779E-6	-45.313573
1.527835E-6	-45.108856
1.52788E-6	-44.889192
1.527925E-6	-44.678829
1.52797E-6	-44.633153
1.528015E-6	-44.619292
1.52806E-6	-44.613006
1.528105E-6	-44.602968
1.52815E-6	-44.581712
1.528195E-6	-44.6572
1.52824E-6	-44.886515
1.528285E-6	-45.084982
1.52833E-6	-45.172693
1.528375E-6	-45.158426
1.52842E-6	-45.15131
1.528465E-6	-45.172693
1.52851E-6	-45.134278
1.528555E-6	-45.131446
1.5286E-6	-44.944431
1.528645E-6	-44.641997
1.52869E-6	-44.441803
1.528735E-6	-44.384216
1.52878E-6	-44.361631
1.528825E-6	-44.371126
1.52887E-6	-44.380642
1.528915E-6	-44.372315
1.52896E-6	-44.446637
1.529005E-6	-44.680104
1.52905E-6	-44.959371
1.529095E-6	-45.117314
1.52914E-6	-45.124374
1.529185E-6	-45.127202
1.52923E-6	-45.137112
1.529275E-6	-45.137112
1.52932E-6	-45.15131
1.529365E-6	-45.018273
1.52941E-6	-44.717262
1.529455E-6	-44.48672
1.5295E-6	-44.408118
1.529545E-6	-44.386601
1.52959E-6	-44.372315
1.529635E-6	-44.372315
1.52968E-6	-44.393761
1.529725E-6	-44.408118
1.52977E-6	-44.625587
1.529815E-6	-44.925489
1.52986E-6	-45.179844
1.529905E-6	-45.207127
1.52995E-6	-45.22734
1.529995E-6	-45.217222
1.53004E-6	-45.240384
1.530085E-6	-45.275361
1.53013E-6	-45.195619
1.530175E-6	-44.959371
1.53022E-6	-44.628108
1.530265E-6	-44.49894
1.53031E-6	-44.453897
1.530355E-6	-44.459957
1.5304E-6	-44.481842
1.530445E-6	-44.472101
1.53049E-6	-44.507514
1.530535E-6	-44.639468
1.53058E-6	-44.936303
1.530625E-6	-45.198493
1.53067E-6	-45.312097
1.530715E-6	-45.335773
1.53076E-6	-45.322439
1.530805E-6	-45.353614
1.53085E-6	-45.394028
1.530895E-6	-45.353614
1.53094E-6	-45.169836
1.530985E-6	-44.85718
1.53103E-6	-44.640733
1.531075E-6	-44.601714
1.53112E-6	-44.575481
1.531165E-6	-44.604221
1.53121E-6	-44.601714
1.531255E-6	-44.61175
1.5313E-6	-44.682657
1.531345E-6	-44.94172
1.53139E-6	-45.262212
1.531435E-6	-45.391022
1.53148E-6	-45.459177
1.531525E-6	-45.463759
1.53157E-6	-45.492891
1.531615E-6	-45.502132
1.53166E-6	-45.485206
1.531705E-6	-45.404567
1.53175E-6	-45.107448
1.531795E-6	-44.830682
1.53184E-6	-44.708264
1.531885E-6	-44.769042
1.53193E-6	-44.752146
1.531975E-6	-44.748256
1.53202E-6	-44.774254
1.532065E-6	-44.8096
1.53211E-6	-44.992148
1.532155E-6	-45.285616
1.5322E-6	-45.551748
1.532245E-6	-45.586191
1.53229E-6	-45.62091
1.532335E-6	-45.632015
1.53238E-6	-45.662302
1.532425E-6	-45.646335
1.53247E-6	-45.600361
1.532515E-6	-45.407583
1.53256E-6	-45.115903
1.532605E-6	-44.944431
1.53265E-6	-44.895891
1.532695E-6	-44.899915
1.53274E-6	-44.92279
1.532785E-6	-44.897232
1.53283E-6	-44.977095
1.532875E-6	-45.0515
1.53292E-6	-45.395532
1.532965E-6	-45.659104
1.53301E-6	-45.808707
1.533055E-6	-45.820304
1.5331E-6	-45.858626
1.533145E-6	-45.873715
1.53319E-6	-45.895602
1.533235E-6	-45.836924
1.53328E-6	-45.699249
1.533325E-6	-45.450028
1.53337E-6	-45.244741
1.533415E-6	-45.157002
1.53346E-6	-45.144205
1.533505E-6	-45.188441
1.53355E-6	-45.221555
1.533595E-6	-45.249102
1.53364E-6	-45.297366
1.533685E-6	-45.499049
1.53373E-6	-45.793842
1.533775E-6	-45.980827
1.53382E-6	-46.080069
1.533865E-6	-46.104795
1.53391E-6	-46.106567
1.533955E-6	-46.120765
1.534E-6	-46.133227
1.534045E-6	-46.078309
1.53409E-6	-45.875395
1.534135E-6	-45.609833
1.53418E-6	-45.512937
1.534225E-6	-45.483671
1.53427E-6	-45.495969
1.534315E-6	-45.503673
1.53436E-6	-45.536182
1.534405E-6	-45.575202
1.53445E-6	-45.684754
1.534495E-6	-45.953373
1.53454E-6	-46.205132
1.534585E-6	-46.337639
1.53463E-6	-46.341378
1.534675E-6	-46.392173
1.53472E-6	-46.38839
1.534765E-6	-46.397854
1.53481E-6	-46.377061
1.534855E-6	-46.265363
1.5349E-6	-46.0206
1.534945E-6	-45.828606
1.53499E-6	-45.790546
1.535035E-6	-45.810362
1.53508E-6	-45.798792
1.535125E-6	-45.853609
1.53517E-6	-45.845258
1.535215E-6	-45.932895
1.53526E-6	-46.104795
1.535305E-6	-46.362001
1.53535E-6	-46.542343
1.535395E-6	-46.589614
1.53544E-6	-46.617428
1.535485E-6	-46.603498
1.53553E-6	-46.599527
1.535575E-6	-46.625407
1.53562E-6	-46.565914
1.535665E-6	-46.378947
1.53571E-6	-46.154674
1.535755E-6	-46.085356
1.5358E-6	-46.051982
1.535845E-6	-46.090649
1.53589E-6	-46.094181
1.535935E-6	-46.081831
1.53598E-6	-46.094181
1.536025E-6	-46.214204
1.53607E-6	-46.476245
1.536115E-6	-46.657474
1.53616E-6	-46.773673
1.536205E-6	-46.786087
1.53625E-6	-46.78816
1.536295E-6	-46.784016
1.53634E-6	-46.781945
1.536385E-6	-46.773673
1.53643E-6	-46.653452
1.536475E-6	-46.443569
1.53652E-6	-46.280091
1.536565E-6	-46.230582
1.53661E-6	-46.236056
1.536655E-6	-46.265363
1.5367E-6	-46.272721
1.536745E-6	-46.27088
1.53679E-6	-46.326441
1.536835E-6	-46.476245
1.53688E-6	-46.693833
1.536925E-6	-46.846595
1.53697E-6	-46.8867
1.537015E-6	-46.852903
1.53706E-6	-46.869769
1.537105E-6	-46.90157
1.53715E-6	-46.905828
1.537195E-6	-46.838199
1.53724E-6	-46.649435
1.537285E-6	-46.432095
1.53733E-6	-46.346993
1.537375E-6	-46.333903
1.53742E-6	-46.326441
1.537465E-6	-46.324577
1.53751E-6	-46.315272
1.537555E-6	-46.346993
1.5376E-6	-46.420652
1.537645E-6	-46.649435
1.53769E-6	-46.846595
1.537735E-6	-46.905828
1.53778E-6	-46.907958
1.537825E-6	-46.955095
1.53787E-6	-46.897316
1.537915E-6	-46.93575
1.53796E-6	-46.920763
1.538005E-6	-46.777807
1.53805E-6	-46.544302
1.538095E-6	-46.392173
1.53814E-6	-46.333903
1.538185E-6	-46.348866
1.53823E-6	-46.365761
1.538275E-6	-46.339508
1.53832E-6	-46.328305
1.538365E-6	-46.362001
1.53841E-6	-46.516951
1.538455E-6	-46.757175
1.5385E-6	-46.876111
1.538545E-6	-46.907958
1.53859E-6	-46.907958
1.538635E-6	-46.907958
1.53868E-6	-46.918626
1.538725E-6	-46.916491
1.53877E-6	-46.848697
1.538815E-6	-46.647427
1.53886E-6	-46.447401
1.538905E-6	-46.348866
1.53895E-6	-46.313413
1.538995E-6	-46.307841
1.53904E-6	-46.294869
1.539085E-6	-46.304131
1.53913E-6	-46.318991
1.539175E-6	-46.399749
1.53922E-6	-46.613443
1.539265E-6	-46.786087
1.53931E-6	-46.880343
1.539355E-6	-46.90157
1.5394E-6	-46.8867
1.539445E-6	-46.888822
1.53949E-6	-46.888822
1.539535E-6	-46.880343
1.53958E-6	-46.732546
1.539625E-6	-46.513058
1.53967E-6	-46.33017
1.539715E-6	-46.287474
1.53976E-6	-46.256183
1.539805E-6	-46.23423
1.53985E-6	-46.245193
1.539895E-6	-46.254349
1.53994E-6	-46.276404
1.539985E-6	-46.414941
1.54003E-6	-46.649435
1.540075E-6	-46.804776
1.54012E-6	-46.831912
1.540165E-6	-46.842395
1.54021E-6	-46.861328
1.540255E-6	-46.850799
1.5403E-6	-46.842395
1.540345E-6	-46.790233
1.54039E-6	-46.591595
1.540435E-6	-46.377061
1.54048E-6	-46.26904
1.540525E-6	-46.226937
1.54057E-6	-46.174427
1.540615E-6	-46.170829
1.54066E-6	-46.201508
1.540705E-6	-46.176227
1.54075E-6	-46.261689
1.540795E-6	-46.480105
1.54084E-6	-46.679657
1.540885E-6	-46.771607
1.54093E-6	-46.819367
1.540975E-6	-46.790233
1.54102E-6	-46.823545
1.541065E-6	-46.800616
1.54111E-6	-46.790233
1.541155E-6	-46.683703
1.5412E-6	-46.437829
1.541245E-6	-46.239708
1.54129E-6	-46.145725
1.541335E-6	-46.117211
1.54138E-6	-46.136794
1.541425E-6	-46.097716
1.54147E-6	-46.117211
1.541515E-6	-46.167233
1.54156E-6	-46.276404
1.541605E-6	-46.530605
1.54165E-6	-46.691805
1.541695E-6	-46.761294
1.54174E-6	-46.765416
1.541785E-6	-46.767479
1.54183E-6	-46.74074
1.541875E-6	-46.732546
1.54192E-6	-46.720284
1.541965E-6	-46.563945
1.54201E-6	-46.318991
1.542055E-6	-46.129663
1.5421E-6	-46.094181
1.542145E-6	-46.07303
1.54219E-6	-46.069515
1.542235E-6	-46.088884
1.54228E-6	-46.07303
1.542325E-6	-46.104795
1.54237E-6	-46.283781
1.542415E-6	-46.534514
1.54246E-6	-46.710091
1.542505E-6	-46.761294
1.54255E-6	-46.74074
1.542595E-6	-46.718243
1.54264E-6	-46.726411
1.542685E-6	-46.734593
1.54273E-6	-46.675615
1.542775E-6	-46.455074
1.54282E-6	-46.19427
1.542865E-6	-46.08712
1.54291E-6	-46.053732
1.542955E-6	-46.064248
1.543E-6	-46.057235
1.543045E-6	-46.055483
1.54309E-6	-46.057235
1.543135E-6	-46.160052
1.54318E-6	-46.395959
1.543225E-6	-46.647427
1.54327E-6	-46.73869
1.543315E-6	-46.767479
1.54336E-6	-46.751005
1.543405E-6	-46.74895
1.54345E-6	-46.759234
1.543495E-6	-46.771607
1.54354E-6	-46.625407
1.543585E-6	-46.35449
1.54363E-6	-46.14215
1.543675E-6	-46.085356
1.54372E-6	-46.07303
1.543765E-6	-46.088884
1.54381E-6	-46.088884
1.543855E-6	-46.076548
1.5439E-6	-46.103025
1.543945E-6	-46.27088
1.54399E-6	-46.522798
1.544035E-6	-46.777807
1.54408E-6	-46.794383
1.544125E-6	-46.806857
1.54417E-6	-46.804776
1.544215E-6	-46.802695
1.54426E-6	-46.802695
1.544305E-6	-46.792308
1.54435E-6	-46.591595
1.544395E-6	-46.343249
1.54444E-6	-46.161846
1.544485E-6	-46.117211
1.54453E-6	-46.131445
1.544575E-6	-46.127882
1.54462E-6	-46.147513
1.544665E-6	-46.161846
1.54471E-6	-46.187044
1.544755E-6	-46.413039
1.5448E-6	-46.683703
1.544845E-6	-46.813107
1.54489E-6	-46.861328
1.544935E-6	-46.850799
1.54498E-6	-46.825635
1.545025E-6	-46.685727
1.54507E-6	-45.979106
1.545115E-6	-38.827287
1.54516E-6	-27.535014
1.545205E-6	-22.183164
1.54525E-6	-19.909743
1.545295E-6	-19.385475
1.54534E-6	-19.292235
1.545385E-6	-19.284862
1.54543E-6	-19.303319
1.545475E-6	-19.681877
1.54552E-6	-21.538485
1.545565E-6	-26.34512
1.54561E-6	-35.583049
1.545655E-6	-43.383766
1.5457E-6	-46.127882
1.545745E-6	-46.736641
1.54579E-6	-46.882461
1.545835E-6	-46.918626
1.54588E-6	-46.912222
1.545925E-6	-46.821455
1.54597E-6	-46.593576
1.546015E-6	-46.36388
1.54606E-6	-46.283781
1.546105E-6	-46.27088
1.54615E-6	-46.272721
1.546195E-6	-46.272721
1.54624E-6	-46.256183
1.546285E-6	-46.287474
1.54633E-6	-46.416844
1.546375E-6	-46.677636
1.54642E-6	-46.880343
1.546465E-6	-46.965879
1.54651E-6	-46.974526
1.546555E-6	-46.972363
1.5466E-6	-46.92932
1.546645E-6	-46.639407
1.54669E-6	-44.645793
1.546735E-6	-32.513469
1.54678E-6	-24.15895
1.546825E-6	-20.751007
1.54687E-6	-19.593977
1.546915E-6	-19.41574
1.54696E-6	-19.385475
1.547005E-6	-19.377942
1.54705E-6	-19.503944
1.547095E-6	-20.546792
1.54714E-6	-23.832095
1.547185E-6	-31.025379
1.54723E-6	-40.574463
1.547275E-6	-45.49443
1.54732E-6	-46.671577
1.547365E-6	-46.948637
1.54741E-6	-47.004927
1.547455E-6	-47.018021
1.5475E-6	-46.983191
1.547545E-6	-46.800616
1.54759E-6	-46.552149
1.547635E-6	-46.403542
1.54768E-6	-46.362001
1.547725E-6	-46.352614
1.54777E-6	-46.339508
1.547815E-6	-46.358244
1.54786E-6	-46.367642
1.547905E-6	-46.434006
1.54795E-6	-46.627405
1.547995E-6	-46.878226
1.54804E-6	-47.024583
1.548085E-6	-47.059749
1.54813E-6	-47.075224
1.548175E-6	-47.033348
1.54822E-6	-46.905828
1.548265E-6	-46.183435
1.54831E-6	-39.404366
1.548355E-6	-27.212464
1.5484E-6	-22.007973
1.548445E-6	-19.913998
1.54849E-6	-19.442395
1.548535E-6	-19.370422
1.54858E-6	-19.333014
1.548625E-6	-19.370422
1.54867E-6	-19.75925
1.548715E-6	-21.746388
1.54876E-6	-26.746896
1.548805E-6	-36.289321
1.54885E-6	-43.739678
1.548895E-6	-46.328305
1.54894E-6	-46.91009
1.548985E-6	-47.018021
1.54903E-6	-47.042131
1.549075E-6	-47.031155
1.54912E-6	-46.948637
1.549165E-6	-46.722325
1.54921E-6	-46.485902
1.549255E-6	-46.362001
1.5493E-6	-46.35074
1.549345E-6	-46.337639
1.54939E-6	-46.348866
1.549435E-6	-46.343249
1.54948E-6	-46.371407
1.549525E-6	-46.480105
1.54957E-6	-46.716204
1.549615E-6	-46.948637
1.54966E-6	-47.035542
1.549705E-6	-47.050931
1.54975E-6	-47.046529
1.549795E-6	-46.985359
1.54984E-6	-46.693833
1.549885E-6	-45.058454
1.54993E-6	-33.423706
1.549975E-6	-24.377071
1.55002E-6	-20.684913
1.550065E-6	-19.442395
1.55011E-6	-19.233596
1.550155E-6	-19.186527
1.5502E-6	-19.186527
1.550245E-6	-19.226321
1.55029E-6	-19.969705
1.550335E-6	-22.71565
1.55038E-6	-29.35542
1.550425E-6	-39.681877
1.55047E-6	-44.945787
1.550515E-6	-46.554113
1.55056E-6	-46.893067
1.550605E-6	-46.96372
1.55065E-6	-46.974526
1.550695E-6	-46.96372
1.55074E-6	-46.800616
1.550785E-6	-46.522798
1.55083E-6	-46.315272
1.550875E-6	-46.259853
1.55092E-6	-46.248853
1.550965E-6	-46.243364
1.55101E-6	-46.248853
1.551055E-6	-46.232406
1.5511E-6	-46.278247
1.551145E-6	-46.441655
1.55119E-6	-46.728455
1.551235E-6	-46.933606
1.55128E-6	-46.976691
1.551325E-6	-46.972363
1.55137E-6	-46.965879
1.551415E-6	-46.96372
1.55146E-6	-46.96372
1.551505E-6	-46.922901
1.55155E-6	-46.701955
1.551595E-6	-46.403542
1.55164E-6	-46.221476
1.551685E-6	-46.183435
1.55173E-6	-46.181632
1.551775E-6	-46.17983
1.55182E-6	-46.167233
1.551865E-6	-46.156466
1.55191E-6	-46.216021
1.551955E-6	-46.430186
1.552E-6	-46.710091
1.552045E-6	-46.8867
1.55209E-6	-46.92504
1.552135E-6	-46.914356
1.55218E-6	-46.916491
1.552225E-6	-46.920763
1.55227E-6	-46.920763
1.552315E-6	-46.840297
1.55236E-6	-46.595559
1.552405E-6	-46.298572
1.55245E-6	-46.149302
1.552495E-6	-46.11366
1.55254E-6	-46.11366
1.552585E-6	-46.110112
1.55263E-6	-46.094181
1.552675E-6	-46.101254
1.55272E-6	-46.178028
1.552765E-6	-46.420652
1.55281E-6	-46.716204
1.552855E-6	-46.844495
1.5529E-6	-46.869769
1.552945E-6	-46.857113
1.55299E-6	-46.861328
1.553035E-6	-46.857113
1.55308E-6	-46.857113
1.553125E-6	-46.746896
1.55317E-6	-46.487837
1.553215E-6	-46.208759
1.55326E-6	-46.080069
1.553305E-6	-46.06074
1.55335E-6	-46.057235
1.553395E-6	-46.029295
1.55344E-6	-46.0206
1.553485E-6	-46.031036
1.55353E-6	-46.140364
1.553575E-6	-46.407338
1.55362E-6	-46.683703
1.553665E-6	-46.79646
1.55371E-6	-46.808939
1.553755E-6	-46.819367
1.5538E-6	-46.825635
1.553845E-6	-46.829819
1.55389E-6	-46.817279
1.553935E-6	-46.699923
1.55398E-6	-46.401645
1.554025E-6	-46.14215
1.55407E-6	-46.029295
1.554115E-6	-45.999804
1.55416E-6	-45.977386
1.554205E-6	-45.972229
1.55425E-6	-45.965363
1.554295E-6	-45.987718
1.55434E-6	-46.115435
1.554385E-6	-46.395959
1.55443E-6	-46.651443
1.554475E-6	-46.773673
1.55452E-6	-46.790233
1.554565E-6	-46.794383
1.55461E-6	-46.804776
1.554655E-6	-46.786087
1.5547E-6	-46.757175
1.554745E-6	-46.621416
1.55479E-6	-46.324577
1.554835E-6	-46.07303
1.55488E-6	-45.965363
1.554925E-6	-45.924392
1.55497E-6	-45.91082
1.555015E-6	-45.912514
1.55506E-6	-45.914209
1.555105E-6	-45.938006
1.55515E-6	-46.081831
1.555195E-6	-46.365761
1.55524E-6	-46.639407
1.555285E-6	-46.728455
1.55533E-6	-46.761294
1.555375E-6	-46.767479
1.55542E-6	-46.769543
1.555465E-6	-46.744843
1.55551E-6	-46.722325
1.555555E-6	-46.577748
1.5556E-6	-46.26904
1.555645E-6	-46.013657
1.55569E-6	-45.919297
1.555735E-6	-45.888856
1.55578E-6	-45.892228
1.555825E-6	-45.887171
1.55587E-6	-45.890541
1.555915E-6	-45.927791
1.55596E-6	-46.074789
1.556005E-6	-46.367642
1.55605E-6	-46.631402
1.556095E-6	-46.728455
1.55614E-6	-46.755118
1.556185E-6	-46.753061
1.55623E-6	-46.746896
1.556275E-6	-46.746896
1.55632E-6	-46.716204
1.556365E-6	-46.560009
1.55641E-6	-46.250684
1.556455E-6	-45.992894
1.5565E-6	-45.885487
1.556545E-6	-45.872036
1.55659E-6	-45.868679
1.556635E-6	-45.875395
1.55668E-6	-45.878756
1.556725E-6	-45.900669
1.55677E-6	-46.064248
1.556815E-6	-46.371407
1.55686E-6	-46.631402
1.556905E-6	-46.736641
1.55695E-6	-46.759234
1.556995E-6	-46.751005
1.55704E-6	-46.751005
1.557085E-6	-46.746896
1.55713E-6	-46.732546
1.557175E-6	-46.565914
1.55722E-6	-46.23423
1.557265E-6	-45.989443
1.55731E-6	-45.905741
1.557355E-6	-45.890541
1.5574E-6	-45.892228
1.557445E-6	-45.90405
1.55749E-6	-45.900669
1.557535E-6	-45.931193
1.55758E-6	-46.101254
1.557625E-6	-46.422557
1.55767E-6	-46.683703
1.557715E-6	-46.773673
1.55776E-6	-46.78816
1.557805E-6	-46.786087
1.55785E-6	-46.78816
1.557895E-6	-46.781945
1.55794E-6	-46.765416
1.557985E-6	-46.595559
1.55803E-6	-46.280091
1.558075E-6	-46.029295
1.55812E-6	-45.934598
1.558165E-6	-45.929492
1.55821E-6	-45.936302
1.558255E-6	-45.948245
1.5583E-6	-45.955084
1.558345E-6	-45.982549
1.55839E-6	-46.149302
1.558435E-6	-46.478175
1.55848E-6	-46.753061
1.558525E-6	-46.834007
1.55857E-6	-46.850799
1.558615E-6	-46.850799
1.55866E-6	-46.834007
1.558705E-6	-46.857113
1.55875E-6	-46.838199
1.558795E-6	-46.675615
1.55884E-6	-46.360122
1.558885E-6	-46.117211
1.55893E-6	-46.041496
1.558975E-6	-46.038007
1.55902E-6	-46.057235
1.559065E-6	-46.06074
1.55911E-6	-46.067759
1.559155E-6	-46.099485
1.5592E-6	-46.259853
1.559245E-6	-46.583677
1.55929E-6	-46.85922
1.559335E-6	-46.937895
1.55938E-6	-46.952941
1.559425E-6	-46.948637
1.55947E-6	-46.965879
1.559515E-6	-46.987529
1.55956E-6	-46.972363
1.559605E-6	-46.804776
1.55965E-6	-46.50334
1.559695E-6	-46.261689
1.55974E-6	-46.188849
1.559785E-6	-46.188849
1.55983E-6	-46.20332
1.559875E-6	-46.210573
1.55992E-6	-46.212388
1.559965E-6	-46.250684
1.56001E-6	-46.439741
1.560055E-6	-46.74895
1.5601E-6	-47.000571
1.560145E-6	-47.084092
1.56019E-6	-47.101882
1.560235E-6	-47.099654
1.56028E-6	-47.124222
1.560325E-6	-47.13319
1.56037E-6	-47.117508
1.560415E-6	-46.965879
1.56046E-6	-46.663512
1.560505E-6	-46.434006
1.56055E-6	-46.382722
1.560595E-6	-46.380834
1.56064E-6	-46.380834
1.560685E-6	-46.377061
1.56073E-6	-46.394066
1.560775E-6	-46.430186
1.56082E-6	-46.601512
1.560865E-6	-46.903698
1.56091E-6	-47.146678
1.560955E-6	-47.221617
1.561E-6	-47.249191
1.561045E-6	-47.267672
1.56109E-6	-47.283907
1.561135E-6	-47.297871
1.56118E-6	-47.288557
1.561225E-6	-47.14893
1.56127E-6	-46.865546
1.561315E-6	-46.651443
1.56136E-6	-46.583677
1.561405E-6	-46.585655
1.56145E-6	-46.595559
1.561495E-6	-46.587634
1.56154E-6	-46.615435
1.561585E-6	-46.645421
1.56163E-6	-46.794383
1.561675E-6	-47.077439
1.56172E-6	-47.316561
1.561765E-6	-47.416022
1.56181E-6	-47.437635
1.561855E-6	-47.447275
1.5619E-6	-47.473897
1.561945E-6	-47.483618
1.56199E-6	-47.476325
1.562035E-6	-47.358908
1.56208E-6	-47.113037
1.562125E-6	-46.897316
1.56217E-6	-46.821455
1.562215E-6	-46.808939
1.56226E-6	-46.808939
1.562305E-6	-46.813107
1.56235E-6	-46.829819
1.562395E-6	-46.863437
1.56244E-6	-46.987529
1.562485E-6	-47.23998
1.56253E-6	-47.490923
1.562575E-6	-47.589518
1.56262E-6	-47.62205
1.562665E-6	-47.649768
1.56271E-6	-47.659892
1.562755E-6	-47.672579
1.5628E-6	-47.664962
1.562845E-6	-47.579558
1.56289E-6	-47.347104
1.562935E-6	-47.142177
1.56298E-6	-47.059749
1.563025E-6	-47.028963
1.56307E-6	-47.037737
1.563115E-6	-47.061956
1.56316E-6	-47.077439
1.563205E-6	-47.10634
1.56325E-6	-47.205612
1.563295E-6	-47.425614
1.56334E-6	-47.677665
1.563385E-6	-47.798919
1.56343E-6	-47.840982
