Wavelength (nm)	Power (dBm)
1.525E-6	-81.588909
1.525045E-6	-81.500894
1.52509E-6	-82.380722
1.525135E-6	-84.333269
1.52518E-6	-87.609509
1.525225E-6	-91.854195
1.52527E-6	-89.892761
1.525315E-6	-104.374692
1.52536E-6	-120
1.525405E-6	-93.740705
1.52545E-6	-88.198741
1.525495E-6	-86.011923
1.52554E-6	-83.579314
1.525585E-6	-81.202162
1.52563E-6	-80.509029
1.525675E-6	-80.216369
1.52572E-6	-80.755656
1.525765E-6	-79.943906
1.52581E-6	-79.779843
1.525855E-6	-79.97402
1.5259E-6	-81.78683
1.525945E-6	-84.003352
1.52599E-6	-85.970512
1.526035E-6	-120
1.52608E-6	-89.535048
1.526125E-6	-91.681942
1.52617E-6	-90.093948
1.526215E-6	-120
1.52626E-6	-89.229957
1.526305E-6	-83.013776
1.52635E-6	-80.34281
1.526395E-6	-79.400581
1.52644E-6	-78.732194
1.526485E-6	-78.847224
1.52653E-6	-78.989406
1.526575E-6	-78.523237
1.52662E-6	-80.12736
1.526665E-6	-80.156527
1.52671E-6	-82.336615
1.526755E-6	-85.413622
1.5268E-6	-87.316561
1.526845E-6	-94.662279
1.52689E-6	-120
1.526935E-6	-120
1.52698E-6	-93.669357
1.527025E-6	-92.004527
1.52707E-6	-83.223018
1.527115E-6	-78.582368
1.52716E-6	-77.801536
1.527205E-6	-77.8199
1.52725E-6	-77.428016
1.527295E-6	-77.687854
1.52734E-6	-77.604503
1.527385E-6	-77.23998
1.52743E-6	-78.291518
1.527475E-6	-79.875846
1.52752E-6	-83.33482
1.527565E-6	-87.356545
1.52761E-6	-92.076784
1.527655E-6	-93.70081
1.5277E-6	-91.02208
1.527745E-6	-88.917733
1.52779E-6	-89.527251
1.527835E-6	-91.953836
1.52788E-6	-79.689957
1.527925E-6	-77.604503
1.52797E-6	-76.403542
1.528015E-6	-76.276404
1.52806E-6	-76.530605
1.528105E-6	-76.767479
1.52815E-6	-76.373291
1.528195E-6	-77.050931
1.52824E-6	-79.377942
1.528285E-6	-79.677843
1.52833E-6	-87.251497
1.528375E-6	-95.244741
1.52842E-6	-93.039933
1.528465E-6	-120
1.52851E-6	-101.813783
1.528555E-6	-94.556839
1.5286E-6	-85.282683
1.528645E-6	-79.593977
1.52869E-6	-77.126462
1.528735E-6	-75.826944
1.52878E-6	-75.955084
1.528825E-6	-75.992894
1.52887E-6	-75.972229
1.528915E-6	-75.743028
1.52896E-6	-76.165437
1.529005E-6	-77.297871
1.52905E-6	-79.796387
1.529095E-6	-85.774102
1.52914E-6	-89.578184
1.529185E-6	-90.702236
1.52923E-6	-93.398938
1.529275E-6	-93.718155
1.52932E-6	-94.487941
1.529365E-6	-85.030704
1.52941E-6	-80.418663
1.529455E-6	-76.380834
1.5295E-6	-75.492891
1.529545E-6	-75.67191
1.52959E-6	-75.234582
1.529635E-6	-75.172693
1.52968E-6	-75.023794
1.529725E-6	-75.497509
1.52977E-6	-75.893915
1.529815E-6	-79.262816
1.52986E-6	-82.451931
1.529905E-6	-86.831912
1.52995E-6	-106.78816
1.529995E-6	-95.312097
1.53004E-6	-94.212462
1.530085E-6	-96.53647
1.53013E-6	-92.672043
1.530175E-6	-81.30299
1.53022E-6	-76.861328
1.530265E-6	-75.525319
1.53031E-6	-75.202808
1.530355E-6	-74.997635
1.5304E-6	-75.090588
1.530445E-6	-74.877159
1.53049E-6	-75.221555
1.530535E-6	-75.90405
1.53058E-6	-77.535014
1.530625E-6	-81.031983
1.53067E-6	-85.316527
1.530715E-6	-93.907258
1.53076E-6	-90.359762
1.530805E-6	-92.175274
1.53085E-6	-120
1.530895E-6	-120
1.53094E-6	-82.76134
1.530985E-6	-78.410347
1.53103E-6	-75.684754
1.531075E-6	-75.185574
1.53112E-6	-74.990778
1.531165E-6	-74.921441
1.53121E-6	-74.821446
1.531255E-6	-75.082182
1.5313E-6	-75.335773
1.531345E-6	-76.263525
1.53139E-6	-79.233596
1.531435E-6	-83.759243
1.53148E-6	-87.387371
1.531525E-6	-94.920093
1.53157E-6	-90.908721
1.531615E-6	-90.921052
1.53166E-6	-120
1.531705E-6	-87.862167
1.53175E-6	-79.779843
1.531795E-6	-75.780672
1.53184E-6	-75.191311
1.531885E-6	-75.122961
1.53193E-6	-74.681381
1.531975E-6	-75.304725
1.53202E-6	-74.832003
1.532065E-6	-75.182708
1.53211E-6	-75.686362
1.532155E-6	-78.53872
1.5322E-6	-81.511338
1.532245E-6	-86.317131
1.53229E-6	-90.76756
1.532335E-6	-92.969667
1.53238E-6	-94.624327
1.532425E-6	-99.104481
1.53247E-6	-88.046539
1.532515E-6	-82.998157
1.53256E-6	-77.473897
1.532605E-6	-75.660702
1.53265E-6	-75.137112
1.532695E-6	-76.673596
1.53274E-6	-75.179844
1.532785E-6	-75.202808
1.53283E-6	-75.207127
1.532875E-6	-75.492891
1.53292E-6	-76.914356
1.532965E-6	-79.055289
1.53301E-6	-85.472938
1.533055E-6	-98.951716
1.5331E-6	-91.408016
1.533145E-6	-91.588909
1.53319E-6	-120
1.533235E-6	-93.0103
1.53328E-6	-86.08712
1.533325E-6	-80.036197
1.53337E-6	-76.274562
1.533415E-6	-75.460704
1.53346E-6	-75.247648
1.533505E-6	-75.614577
1.53355E-6	-75.895602
1.533595E-6	-75.73977
1.53364E-6	-75.774102
1.533685E-6	-76.585655
1.53373E-6	-79.129288
1.533775E-6	-82.563335
1.53382E-6	-85.433304
1.533865E-6	-88.259402
1.53391E-6	-91.671081
1.533955E-6	-96.430186
1.534E-6	-98.703101
1.534045E-6	-89.24453
1.53409E-6	-82.150976
1.534135E-6	-78.416375
1.53418E-6	-76.34512
1.534225E-6	-76.067759
1.53427E-6	-75.975667
1.534315E-6	-76.161846
1.53436E-6	-76.371407
1.534405E-6	-76.090649
1.53445E-6	-76.74074
1.534495E-6	-78.790972
1.53454E-6	-81.237244
1.534585E-6	-86.765416
1.53463E-6	-90.761345
1.534675E-6	-120
1.53472E-6	-92.191069
1.534765E-6	-90.951222
1.53481E-6	-92.989504
1.534855E-6	-85.638374
1.5349E-6	-80.690001
1.534945E-6	-78.368386
1.53499E-6	-76.918626
1.535035E-6	-76.538427
1.53508E-6	-77.233085
1.535125E-6	-77.135435
1.53517E-6	-77.311881
1.535215E-6	-77.033348
1.53526E-6	-77.710866
1.535305E-6	-82.19035
1.53535E-6	-84.203307
1.535395E-6	-88.837244
1.53544E-6	-101.767214
1.535485E-6	-99.93962
1.53553E-6	-90.63436
1.535575E-6	-120
1.53562E-6	-92.122562
1.535665E-6	-83.5635
1.53571E-6	-79.846402
1.535755E-6	-78.31208
1.5358E-6	-77.430418
1.535845E-6	-77.295541
1.53589E-6	-77.739159
1.535935E-6	-77.840982
1.53598E-6	-77.87546
1.536025E-6	-78.513973
1.53607E-6	-79.527251
1.536115E-6	-82.885302
1.53616E-6	-87.632109
1.536205E-6	-89.858997
1.53625E-6	-92.895441
1.536295E-6	-91.745739
1.53634E-6	-89.817157
1.536385E-6	-91.758742
1.53643E-6	-85.318004
1.536475E-6	-81.278437
1.53652E-6	-78.76475
1.536565E-6	-77.880789
1.53661E-6	-78.052082
1.536655E-6	-77.886124
1.5367E-6	-78.184422
1.536745E-6	-77.404061
1.53679E-6	-78.190144
1.536835E-6	-79.006647
1.53688E-6	-81.324736
1.536925E-6	-85.15985
1.53697E-6	-89.111554
1.537015E-6	-92.047458
1.53706E-6	-90.333421
1.537105E-6	-93.255063
1.53715E-6	-99.222688
1.537195E-6	-88.218867
1.53724E-6	-83.633116
1.537285E-6	-80.918905
1.53733E-6	-78.830604
1.537375E-6	-78.431481
1.53742E-6	-78.703101
1.537465E-6	-78.365404
1.53751E-6	-78.972234
1.537555E-6	-78.671002
1.5376E-6	-78.944898
1.537645E-6	-80.108172
1.53769E-6	-83.49984
1.537735E-6	-86.90157
1.53778E-6	-91.509493
1.537825E-6	-90.795114
1.53787E-6	-90.163286
1.537915E-6	-100.245682
1.53796E-6	-93.046935
1.538005E-6	-85.86365
1.53805E-6	-83.257821
1.538095E-6	-79.965395
1.53814E-6	-78.434508
1.538185E-6	-78.651856
1.53823E-6	-78.751699
1.538275E-6	-78.941493
1.53832E-6	-78.651856
1.538365E-6	-78.703101
1.53841E-6	-79.480761
1.538455E-6	-81.617808
1.5385E-6	-84.505063
1.538545E-6	-103.715089
1.53859E-6	-87.920965
1.538635E-6	-89.442395
1.53868E-6	-88.741935
1.538725E-6	-89.35542
1.53877E-6	-93.540867
1.538815E-6	-85.016894
1.53886E-6	-81.041908
1.538905E-6	-79.150664
1.53895E-6	-78.256494
1.538995E-6	-78.53252
1.53904E-6	-78.572978
1.539085E-6	-78.680607
1.53913E-6	-78.598063
1.539175E-6	-78.989406
1.53922E-6	-80.192242
1.539265E-6	-83.172234
1.53931E-6	-87.321246
1.539355E-6	-90.730919
1.5394E-6	-89.118639
1.539445E-6	-120
1.53949E-6	-93.328273
1.539535E-6	-120
1.53958E-6	-86.358244
1.539625E-6	-82.501092
1.53967E-6	-80.117087
1.539715E-6	-78.758219
1.53976E-6	-78.175853
1.539805E-6	-78.53252
1.53985E-6	-78.431481
1.539895E-6	-78.236193
1.53994E-6	-78.699881
1.539985E-6	-79.590023
1.54003E-6	-81.417637
1.540075E-6	-85.581478
1.54012E-6	-92.407856
1.540165E-6	-91.656429
1.54021E-6	-120
1.540255E-6	-88.794261
1.5403E-6	-99.888526
1.540345E-6	-88.90759
1.54039E-6	-85.561115
1.540435E-6	-80.69051
1.54048E-6	-79.020489
1.540525E-6	-78.079904
1.54057E-6	-78.175853
1.540615E-6	-78.107905
1.54066E-6	-77.991495
1.540705E-6	-78.265224
1.54075E-6	-78.78112
1.540795E-6	-79.710223
1.54084E-6	-83.295686
1.540885E-6	-85.635193
1.54093E-6	-86.914356
1.540975E-6	-87.614521
1.54102E-6	-120
1.541065E-6	-94.87983
1.54111E-6	-96.633402
1.541155E-6	-86.422557
1.5412E-6	-83.189398
1.541245E-6	-79.503944
1.54129E-6	-78.082696
1.541335E-6	-78.158766
1.54138E-6	-78.204482
1.541425E-6	-77.695511
1.54147E-6	-77.672579
1.541515E-6	-77.634627
1.54156E-6	-78.198741
1.541605E-6	-80.845474
1.54165E-6	-85.139948
1.541695E-6	-87.217038
1.54174E-6	-89.048306
1.541785E-6	-90.413883
1.54183E-6	-95.689581
1.541875E-6	-120
1.54192E-6	-87.977842
1.541965E-6	-85.236032
1.54201E-6	-80.702236
1.542055E-6	-78.982529
1.5421E-6	-77.544873
1.542145E-6	-77.659892
1.54219E-6	-77.444863
1.542235E-6	-77.160207
1.54228E-6	-77.562181
1.542325E-6	-77.856861
1.54237E-6	-78.526329
1.542415E-6	-81.376897
1.54246E-6	-86.659486
1.542505E-6	-91.17988
1.54255E-6	-92.868456
1.542595E-6	-92.303273
1.54264E-6	-90.258569
1.542685E-6	-95.826944
1.54273E-6	-94.08824
1.542775E-6	-84.223933
1.54282E-6	-80.21135
1.542865E-6	-77.384992
1.54291E-6	-77.387371
1.542955E-6	-77.587026
1.543E-6	-77.32359
1.543045E-6	-77.244583
1.54309E-6	-77.437635
1.543135E-6	-78.057633
1.54318E-6	-79.248181
1.543225E-6	-83.833145
1.54327E-6	-88.863908
1.543315E-6	-120
1.54336E-6	-91.945671
1.543405E-6	-120
1.54345E-6	-92.094334
1.543495E-6	-90.688983
1.54354E-6	-88.449678
1.543585E-6	-81.464843
1.54363E-6	-78.728952
1.543675E-6	-77.535014
1.54372E-6	-77.244583
1.543765E-6	-76.90157
1.54381E-6	-77.449688
1.543855E-6	-77.13319
1.5439E-6	-77.267672
1.543945E-6	-78.437538
1.54399E-6	-80.077116
1.544035E-6	-84.024145
1.54408E-6	-89.381707
1.544125E-6	-90.815503
1.54417E-6	-93.065369
1.544215E-6	-97.9129
1.54426E-6	-101.128893
1.544305E-6	-120
1.54435E-6	-82.491061
1.544395E-6	-80.391488
1.54444E-6	-77.47147
1.544485E-6	-77.522722
1.54453E-6	-77.146678
1.544575E-6	-77.212464
1.54462E-6	-76.687752
1.544665E-6	-77.020208
1.54471E-6	-77.185121
1.544755E-6	-78.093882
1.5448E-6	-80.678815
1.544845E-6	-84.222785
1.54489E-6	-88.563608
1.544935E-6	-89.104481
1.54498E-6	-90.781575
1.545025E-6	-85.802094
1.54507E-6	-79.104481
1.545115E-6	-65.297366
1.54516E-6	-51.424263
1.545205E-6	-44.92279
1.54525E-6	-42.723774
1.545295E-6	-42.24608
1.54534E-6	-42.211978
1.545385E-6	-42.211978
1.54543E-6	-42.181728
1.545475E-6	-42.564902
1.54552E-6	-44.561802
1.545565E-6	-49.233596
1.54561E-6	-59.139963
1.545655E-6	-67.767637
1.5457E-6	-74.86516
1.545745E-6	-80.518806
1.54579E-6	-84.099388
1.545835E-6	-85.723516
1.54588E-6	-86.806857
1.545925E-6	-87.880789
1.54597E-6	-81.62033
1.546015E-6	-78.741935
1.54606E-6	-77.340036
1.546105E-6	-76.931463
1.54615E-6	-77.537477
1.546195E-6	-77.295541
1.54624E-6	-77.059749
1.546285E-6	-77.363639
1.54633E-6	-78.035475
1.546375E-6	-79.755143
1.54642E-6	-82.672847
1.546465E-6	-88.526329
1.54651E-6	-88.374356
1.546555E-6	-90.717578
1.5466E-6	-104.643262
1.546645E-6	-120
1.54669E-6	-90.380097
1.546735E-6	-86.35074
1.54678E-6	-80.364483
1.546825E-6	-77.632109
1.54687E-6	-77.265357
1.546915E-6	-77.2262
1.54696E-6	-76.976691
1.547005E-6	-77.263044
1.54705E-6	-77.157949
1.547095E-6	-76.846595
1.54714E-6	-77.93714
1.547185E-6	-80.631848
1.54723E-6	-84.023048
1.547275E-6	-95.595632
1.54732E-6	-91.033636
1.547365E-6	-120
1.54741E-6	-91.587657
1.547455E-6	-120
1.5475E-6	-87.428016
1.547545E-6	-82.751509
1.54759E-6	-79.24453
1.547635E-6	-77.597004
1.54768E-6	-77.4958
1.547725E-6	-77.121983
1.54777E-6	-76.699923
1.547815E-6	-76.869769
1.54786E-6	-77.090754
1.547905E-6	-77.337683
1.54795E-6	-78.610661
1.547995E-6	-81.290696
1.54804E-6	-85.191311
1.548085E-6	-100.147532
1.54813E-6	-90.406247
1.548175E-6	-88.428456
1.54822E-6	-93.025963
1.548265E-6	-94.099388
1.54831E-6	-88.155925
1.548355E-6	-82.875187
1.5484E-6	-78.774565
1.548445E-6	-77.549811
1.54849E-6	-76.800616
1.548535E-6	-77.113037
1.54858E-6	-77.146678
1.548625E-6	-76.563945
1.54867E-6	-77.07301
1.548715E-6	-77.634627
1.54876E-6	-79.086848
1.548805E-6	-82.403322
1.54885E-6	-86.899443
1.548895E-6	-88.78112
1.54894E-6	-99.037854
1.548985E-6	-91.121015
1.54903E-6	-120
1.549075E-6	-92.705922
1.54912E-6	-91.582027
1.549165E-6	-81.520574
1.54921E-6	-78.535619
1.549255E-6	-77.337683
1.5493E-6	-76.722325
1.549345E-6	-76.959405
1.54939E-6	-77.210179
1.549435E-6	-76.689778
1.54948E-6	-77.097427
1.549525E-6	-77.486051
1.54957E-6	-79.193735
1.549615E-6	-81.833611
1.54966E-6	-87.557229
1.549705E-6	-91.842231
1.54975E-6	-87.026773
1.549795E-6	-86.893067
1.54984E-6	-83.005959
1.549885E-6	-73.759243
1.54993E-6	-58.068754
1.549975E-6	-47.71343
1.55002E-6	-43.399888
1.550065E-6	-42.2541
1.55011E-6	-42.069783
1.550155E-6	-42.078886
1.5502E-6	-42.03495
1.550245E-6	-42.104898
1.55029E-6	-42.932822
1.550335E-6	-45.893915
1.55038E-6	-52.366469
1.550425E-6	-61.337127
1.55047E-6	-70.225508
1.550515E-6	-77.637147
1.55056E-6	-82.001083
1.550605E-6	-86.205132
1.55065E-6	-89.767475
1.550695E-6	-88.53872
1.55074E-6	-87.21475
1.550785E-6	-79.97402
1.55083E-6	-77.522722
1.550875E-6	-76.728455
1.55092E-6	-76.724367
1.550965E-6	-76.538427
1.55101E-6	-76.850799
1.551055E-6	-76.808939
1.5511E-6	-77.191941
1.551145E-6	-77.896815
1.55119E-6	-80.450824
1.551235E-6	-85.364056
1.55128E-6	-90.267336
1.551325E-6	-95.678327
1.55137E-6	-89.515582
1.551415E-6	-89.901244
1.55146E-6	-120
1.551505E-6	-89.069287
1.55155E-6	-83.984832
1.551595E-6	-79.347939
1.55164E-6	-77.384992
1.551685E-6	-76.53647
1.55173E-6	-77.246886
1.551775E-6	-76.665527
1.55182E-6	-76.518899
1.551865E-6	-76.769543
1.55191E-6	-76.792308
1.551955E-6	-78.241984
1.552E-6	-80.942581
1.552045E-6	-85.412111
1.55209E-6	-89.08333
1.552135E-6	-99.359166
1.55218E-6	-91.594548
1.552225E-6	-94.426131
1.55227E-6	-89.617774
1.552315E-6	-88.623295
1.55236E-6	-83.907258
1.552405E-6	-79.229957
1.55245E-6	-77.577071
1.552495E-6	-76.635403
1.55254E-6	-76.579723
1.552585E-6	-76.245193
1.55263E-6	-76.276404
1.552675E-6	-76.407338
1.55272E-6	-76.976691
1.552765E-6	-78.198741
1.55281E-6	-80.858685
1.552855E-6	-120
1.5529E-6	-93.345128
1.552945E-6	-120
1.55299E-6	-89.389247
1.553035E-6	-96.127882
1.55308E-6	-94.135252
1.553125E-6	-87.994231
1.55317E-6	-81.269702
1.553215E-6	-78.784402
1.55326E-6	-77.293212
1.553305E-6	-76.041496
1.55335E-6	-76.798537
1.553395E-6	-76.435917
1.55344E-6	-76.360122
1.553485E-6	-77.139929
1.55353E-6	-77.20105
1.553575E-6	-79.013563
1.55362E-6	-81.822364
1.553665E-6	-86.3865
1.55371E-6	-120
1.553755E-6	-90.611302
1.5538E-6	-88.035475
1.553845E-6	-120
1.55389E-6	-88.467951
1.553935E-6	-88.021683
1.55398E-6	-80.769115
1.554025E-6	-77.456937
1.55407E-6	-76.876111
1.554115E-6	-76.609463
1.55416E-6	-76.850799
1.554205E-6	-76.241536
1.55425E-6	-76.542343
1.554295E-6	-76.274562
1.55434E-6	-77.077439
1.554385E-6	-79.400581
1.55443E-6	-81.537866
1.554475E-6	-89.677843
1.55452E-6	-90.125125
1.554565E-6	-89.734667
1.55461E-6	-88.282735
1.554655E-6	-112.663213
1.5547E-6	-95.798792
1.554745E-6	-85.641556
1.55479E-6	-80.229169
1.554835E-6	-77.180581
1.55488E-6	-76.493644
1.554925E-6	-76.133227
1.55497E-6	-75.975667
1.555015E-6	-76.621416
1.55506E-6	-75.9176
1.555105E-6	-76.441655
1.55515E-6	-77.090754
1.555195E-6	-78.428456
1.55524E-6	-82.028017
1.555285E-6	-89.229957
1.55533E-6	-87.71343
1.555375E-6	-90
1.55542E-6	-90.639892
1.555465E-6	-120
1.55551E-6	-89.880069
1.555555E-6	-87.848914
1.5556E-6	-80.287706
1.555645E-6	-77.281584
1.55569E-6	-76.567884
1.555735E-6	-75.851937
1.55578E-6	-75.898979
1.555825E-6	-76.294869
1.55587E-6	-75.721894
1.555915E-6	-76.430186
1.55596E-6	-77.10411
1.556005E-6	-79.147094
1.55605E-6	-82.636832
1.556095E-6	-88.910969
1.55614E-6	-91.061273
1.556185E-6	-88.651856
1.55623E-6	-90.725783
1.556275E-6	-88.591778
1.55632E-6	-90.152027
1.556365E-6	-84.964817
1.55641E-6	-79.519468
1.556455E-6	-77.478754
1.5565E-6	-76.067759
1.556545E-6	-76.298572
1.55659E-6	-76.11366
1.556635E-6	-76.542343
1.55668E-6	-76.032777
1.556725E-6	-76.309698
1.55677E-6	-76.92504
1.556815E-6	-78.996295
1.55686E-6	-82.163108
1.556905E-6	-86.03452
1.55695E-6	-90.999608
1.556995E-6	-87.235382
1.55704E-6	-97.404061
1.557085E-6	-91.526124
1.55713E-6	-85.349147
1.557175E-6	-85.131446
1.55722E-6	-79.562449
1.557265E-6	-76.687752
1.55731E-6	-76.390281
1.557355E-6	-76.476245
1.5574E-6	-75.980827
1.557445E-6	-75.984272
1.55749E-6	-76.258017
1.557535E-6	-76.010189
1.55758E-6	-77.07301
1.557625E-6	-79.226321
1.55767E-6	-83.804893
1.557715E-6	-87.977842
1.55776E-6	-88.732194
1.557805E-6	-120
1.55785E-6	-97.859513
1.557895E-6	-90.883631
1.55794E-6	-88.642315
1.557985E-6	-84.212462
1.55803E-6	-79.570309
1.558075E-6	-76.897316
1.55812E-6	-76.458916
1.558165E-6	-76.101254
1.55821E-6	-76.315272
1.558255E-6	-76.190655
1.5583E-6	-76.601512
1.558345E-6	-76.418747
1.55839E-6	-76.831912
1.558435E-6	-79.617774
1.55848E-6	-84.08379
1.558525E-6	-92.452695
1.55857E-6	-91.255182
1.558615E-6	-120
1.55866E-6	-91.149216
1.558705E-6	-92.818306
1.55875E-6	-89.288547
1.558795E-6	-86.219657
1.55884E-6	-79.871628
1.558885E-6	-76.985359
1.55893E-6	-76.237881
1.558975E-6	-76.554113
1.55902E-6	-76.263525
1.559065E-6	-76.0206
1.55911E-6	-76.593576
1.559155E-6	-76.804776
1.5592E-6	-77.6675
1.559245E-6	-79.621752
1.55929E-6	-83.524214
1.559335E-6	-85.419668
1.55938E-6	-120
1.559425E-6	-93.553645
1.55947E-6	-94.788619
1.559515E-6	-90.489054
1.55956E-6	-86.673596
1.559605E-6	-83.921163
1.55965E-6	-80.05991
1.559695E-6	-77.099654
1.55974E-6	-76.320853
1.559785E-6	-76.322715
1.55983E-6	-76.167233
1.559875E-6	-76.35449
1.55992E-6	-76.563945
1.559965E-6	-76.558043
1.56001E-6	-77.677665
1.560055E-6	-79.404366
1.5601E-6	-83.027707
1.560145E-6	-120
1.56019E-6	-89.006647
1.560235E-6	-91.505192
1.56028E-6	-120
1.560325E-6	-120
1.56037E-6	-104.569258
1.560415E-6	-84.944431
1.56046E-6	-80.306307
1.560505E-6	-77.394516
1.56055E-6	-77.187393
1.560595E-6	-77.092978
1.56064E-6	-77.185121
1.560685E-6	-77.055338
1.56073E-6	-76.922901
1.560775E-6	-76.846595
1.56082E-6	-77.542406
1.560865E-6	-79.450041
1.56091E-6	-83.411304
1.560955E-6	-85.705707
1.561E-6	-120
1.561045E-6	-120
1.56109E-6	-89.952488
1.561135E-6	-120
1.56118E-6	-95.707323
1.561225E-6	-86.759234
1.56127E-6	-80.843364
1.561315E-6	-78.190144
1.56136E-6	-77.10411
1.561405E-6	-77.432823
1.56145E-6	-77.253804
1.561495E-6	-77.428016
1.56154E-6	-77.582046
1.561585E-6	-77.13319
1.56163E-6	-78.362425
1.561675E-6	-80.252581
1.56172E-6	-83.480439
1.561765E-6	-88.178708
1.56181E-6	-89.613798
1.561855E-6	-92.692985
1.5619E-6	-89.609827
1.561945E-6	-92.614573
1.56199E-6	-87.14893
1.562035E-6	-87.698066
1.56208E-6	-81.090762
1.562125E-6	-79.147094
1.56217E-6	-78.016179
1.562215E-6	-77.428016
1.56226E-6	-79.150664
1.562305E-6	-77.986029
1.56235E-6	-77.354183
1.562395E-6	-75.963648
1.56244E-6	-78.677403
1.562485E-6	-79.473061
1.56253E-6	-83.77786
1.562575E-6	-88.105097
1.56262E-6	-89.531148
1.562665E-6	-120
1.56271E-6	-111.823024
1.562755E-6	-120
1.5628E-6	-89.681877
1.562845E-6	-86.661499
1.56289E-6	-83.094495
1.562935E-6	-80.002607
1.56298E-6	-78.955129
1.563025E-6	-78.41336
1.56307E-6	-78.410347
1.563115E-6	-78.068754
1.56316E-6	-78.210231
1.563205E-6	-79.164974
1.56325E-6	-79.041335
1.563295E-6	-80.780016
1.56334E-6	-82.492602
1.563385E-6	-87.886124
1.56343E-6	-88.560489
1.563475E-6	-120
1.56352E-6	-93.828948
1.563565E-6	-93.21846
1.56361E-6	-92.525882
1.563655E-6	-86.671577
1.5637E-6	-83.056581
1.563745E-6	-80.585383
1.56379E-6	-78.800846
1.563835E-6	-78.745187
1.56388E-6	-78.955129
1.563925E-6	-78.955129
