Wavelength (nm)	Power (dBm)
1.525E-6	-49.808837
1.525045E-6	-49.677843
1.52509E-6	-49.854795
1.525135E-6	-50.623317
1.52518E-6	-51.551502
1.525225E-6	-51.955879
1.52527E-6	-51.952474
1.525315E-6	-51.88157
1.52536E-6	-51.793389
1.525405E-6	-51.697322
1.52545E-6	-51.37332
1.525495E-6	-50.188612
1.52554E-6	-48.709549
1.525585E-6	-47.767637
1.52563E-6	-47.373117
1.525675E-6	-47.171514
1.52572E-6	-46.940041
1.525765E-6	-46.726411
1.52581E-6	-46.53647
1.525855E-6	-46.732546
1.5259E-6	-47.731424
1.525945E-6	-49.314431
1.52599E-6	-50.356932
1.526035E-6	-50.579423
1.52608E-6	-50.539409
1.526125E-6	-50.474982
1.52617E-6	-50.397195
1.526215E-6	-50.098388
1.52626E-6	-48.658229
1.526305E-6	-46.583677
1.52635E-6	-45.113083
1.526395E-6	-44.677554
1.52644E-6	-44.462383
1.526485E-6	-44.288737
1.52653E-6	-44.121768
1.526575E-6	-44.020855
1.52662E-6	-44.187332
1.526665E-6	-45.254924
1.52671E-6	-47.263044
1.526755E-6	-48.972234
1.5268E-6	-49.446217
1.526845E-6	-49.430951
1.52689E-6	-49.377942
1.526935E-6	-49.329291
1.52698E-6	-49.027427
1.527025E-6	-47.288557
1.52707E-6	-44.643262
1.527115E-6	-42.999023
1.52716E-6	-42.373214
1.527205E-6	-42.143143
1.52725E-6	-42.013494
1.527295E-6	-41.909119
1.52734E-6	-41.828976
1.527385E-6	-41.878892
1.52743E-6	-42.765443
1.527475E-6	-44.93901
1.52752E-6	-47.476325
1.527565E-6	-48.513973
1.52761E-6	-48.648673
1.527655E-6	-48.626459
1.5277E-6	-48.566729
1.527745E-6	-48.449678
1.52779E-6	-46.994045
1.527835E-6	-43.928668
1.52788E-6	-41.742494
1.527925E-6	-40.789902
1.52797E-6	-40.533513
1.528015E-6	-40.498787
1.52806E-6	-40.42728
1.528105E-6	-40.324052
1.52815E-6	-40.352691
1.528195E-6	-40.992506
1.52824E-6	-42.961929
1.528285E-6	-45.932895
1.52833E-6	-47.822529
1.528375E-6	-48.253588
1.52842E-6	-48.247782
1.528465E-6	-48.236193
1.52851E-6	-48.178708
1.528555E-6	-47.207895
1.5286E-6	-44.099388
1.528645E-6	-41.308857
1.52869E-6	-40.078885
1.528735E-6	-39.742846
1.52878E-6	-39.669786
1.528825E-6	-39.601894
1.52887E-6	-39.578184
1.528915E-6	-39.601894
1.52896E-6	-39.986991
1.529005E-6	-41.52304
1.52905E-6	-44.538276
1.529095E-6	-47.233085
1.52914E-6	-48.08549
1.529185E-6	-48.155925
1.52923E-6	-48.024438
1.529275E-6	-47.356545
1.52932E-6	-44.237739
1.529365E-6	-31.766562
1.52941E-6	-21.987335
1.529455E-6	-17.833064
1.5295E-6	-16.232406
1.529545E-6	-15.823623
1.52959E-6	-15.746288
1.529635E-6	-15.663902
1.52968E-6	-15.676722
1.529725E-6	-16.505282
1.52977E-6	-19.434763
1.529815E-6	-25.887171
1.52986E-6	-36.192462
1.529905E-6	-44.014283
1.52995E-6	-47.10634
1.529995E-6	-47.956087
1.53004E-6	-48.153086
1.530085E-6	-48.127614
1.53013E-6	-46.542343
1.530175E-6	-43.03731
1.53022E-6	-40.577438
1.530265E-6	-39.538952
1.53031E-6	-39.277501
1.530355E-6	-39.266483
1.5304E-6	-39.237237
1.530445E-6	-39.222688
1.53049E-6	-39.288547
1.530535E-6	-39.909743
1.53058E-6	-41.76591
1.530625E-6	-45.019653
1.53067E-6	-47.579558
1.530715E-6	-48.239087
1.53076E-6	-48.256494
1.530805E-6	-48.093882
1.53085E-6	-47.144427
1.530895E-6	-42.358986
1.53094E-6	-27.619539
1.530985E-6	-20.46192
1.53103E-6	-17.384992
1.531075E-6	-16.38839
1.53112E-6	-16.183435
1.531165E-6	-16.19427
1.53121E-6	-16.145725
1.531255E-6	-16.304131
1.5313E-6	-17.594508
1.531345E-6	-21.199872
1.53139E-6	-29.277501
1.531435E-6	-39.215432
1.53148E-6	-45.52842
1.531525E-6	-47.634627
1.53157E-6	-48.155925
1.531615E-6	-48.282735
1.53166E-6	-48.024438
1.531705E-6	-45.614577
1.53175E-6	-42.12823
1.531795E-6	-40.061671
1.53184E-6	-39.366666
1.531885E-6	-39.248181
1.53193E-6	-39.266483
1.531975E-6	-39.292235
1.53202E-6	-39.240882
1.532065E-6	-39.370422
1.53211E-6	-40.240171
1.532155E-6	-42.51192
1.5322E-6	-45.927791
1.532245E-6	-47.92635
1.53229E-6	-48.326827
1.532335E-6	-48.317973
1.53238E-6	-48.04931
1.532425E-6	-46.693833
1.53247E-6	-39.233596
1.532515E-6	-25.113083
1.53256E-6	-19.292235
1.532605E-6	-16.895191
1.53265E-6	-16.281935
1.532695E-6	-16.20332
1.53274E-6	-16.216021
1.532785E-6	-16.274562
1.53283E-6	-16.611453
1.532875E-6	-18.368386
1.53292E-6	-22.874345
1.532965E-6	-31.796672
1.53301E-6	-41.17988
1.533055E-6	-46.254349
1.5331E-6	-47.9129
1.533145E-6	-48.285661
1.53319E-6	-48.350526
1.533235E-6	-47.915586
1.53328E-6	-45.218666
1.533325E-6	-42.092224
1.53337E-6	-40.30258
1.533415E-6	-39.763361
1.53346E-6	-39.710223
1.533505E-6	-39.755143
1.53355E-6	-39.808837
1.533595E-6	-39.888526
1.53364E-6	-40.137659
1.533685E-6	-41.203881
1.53373E-6	-43.593198
1.533775E-6	-46.699923
1.53382E-6	-48.207355
1.533865E-6	-48.45576
1.53391E-6	-48.41336
1.533955E-6	-48.068754
1.534E-6	-46.397854
1.534045E-6	-36.974526
1.53409E-6	-24.22853
1.534135E-6	-18.810742
1.53418E-6	-16.629403
1.534225E-6	-16.178028
1.53427E-6	-16.156466
1.534315E-6	-16.22876
1.53436E-6	-16.348866
1.534405E-6	-16.78816
1.53445E-6	-18.745187
1.534495E-6	-23.550693
1.53454E-6	-33.106023
1.534585E-6	-41.963381
1.53463E-6	-46.677636
1.534675E-6	-48.136088
1.53472E-6	-48.443604
1.534765E-6	-48.526329
1.53481E-6	-48.052082
1.534855E-6	-45.616159
1.5349E-6	-42.838297
1.534945E-6	-41.401415
1.53499E-6	-40.985417
1.535035E-6	-40.919978
1.53508E-6	-40.967472
1.535125E-6	-41.006173
1.53517E-6	-41.041356
1.535215E-6	-41.305336
1.53526E-6	-42.431358
1.535305E-6	-44.778167
1.53535E-6	-47.456937
1.535395E-6	-48.513973
1.53544E-6	-48.645493
1.535485E-6	-48.560489
1.53553E-6	-48.138916
1.535575E-6	-46.197888
1.53562E-6	-35.800443
1.535665E-6	-23.70081
1.53571E-6	-18.437538
1.535755E-6	-16.35074
1.5358E-6	-15.96022
1.535845E-6	-15.972229
1.53589E-6	-16.064248
1.535935E-6	-16.174427
1.53598E-6	-16.693833
1.536025E-6	-18.863908
1.53607E-6	-24.013189
1.536115E-6	-33.645163
1.53616E-6	-42.623304
1.536205E-6	-47.020208
1.53625E-6	-48.309136
1.536295E-6	-48.59492
1.53634E-6	-48.667805
1.536385E-6	-48.250684
1.53643E-6	-46.101254
1.536475E-6	-43.560541
1.53652E-6	-42.246809
1.536565E-6	-41.897675
1.53661E-6	-41.854195
1.536655E-6	-41.878222
1.5367E-6	-41.888273
1.536745E-6	-41.91789
1.53679E-6	-42.151688
1.536835E-6	-43.215727
1.53688E-6	-45.412111
1.536925E-6	-47.770236
1.53697E-6	-48.604357
1.537015E-6	-48.687022
1.53706E-6	-48.607508
1.537105E-6	-48.175853
1.53715E-6	-46.221476
1.537195E-6	-35.996347
1.53724E-6	-23.496925
1.537285E-6	-18.368386
1.53733E-6	-16.263525
1.537375E-6	-15.835259
1.53742E-6	-15.818645
1.537465E-6	-15.823623
1.53751E-6	-15.875395
1.537555E-6	-16.320853
1.5376E-6	-18.461851
1.537645E-6	-23.529106
1.53769E-6	-33.019865
1.537735E-6	-42.218487
1.53778E-6	-46.850799
1.537825E-6	-48.239087
1.53787E-6	-48.557372
1.537915E-6	-48.661419
1.53796E-6	-48.332739
1.538005E-6	-46.380834
1.53805E-6	-43.980486
1.538095E-6	-42.597953
1.53814E-6	-42.192508
1.538185E-6	-42.125395
1.53823E-6	-42.127521
1.538275E-6	-42.121854
1.53832E-6	-42.109837
1.538365E-6	-42.309182
1.53841E-6	-43.306831
1.538455E-6	-45.389519
1.5385E-6	-47.637147
1.538545E-6	-48.517059
1.53859E-6	-48.629625
1.538635E-6	-48.563608
1.53868E-6	-48.190144
1.538725E-6	-46.542343
1.53877E-6	-37.173779
1.538815E-6	-24.332091
1.53886E-6	-18.677403
1.538905E-6	-16.3865
1.53895E-6	-15.836924
1.538995E-6	-15.725139
1.53904E-6	-15.705707
1.539085E-6	-15.676722
1.53913E-6	-16.0206
1.539175E-6	-17.931741
1.53922E-6	-22.641617
1.539265E-6	-31.872203
1.53931E-6	-41.403214
1.539355E-6	-46.542343
1.5394E-6	-48.091083
1.539445E-6	-48.471004
1.53949E-6	-48.563608
1.539535E-6	-48.288588
1.53958E-6	-46.418747
1.539625E-6	-43.944795
1.53967E-6	-42.458811
1.539715E-6	-42.017638
1.53976E-6	-41.932775
1.539805E-6	-41.909119
1.53985E-6	-41.89633
1.539895E-6	-41.91249
1.53994E-6	-42.069783
1.539985E-6	-42.926854
1.54003E-6	-45.033471
1.540075E-6	-47.358908
1.54012E-6	-48.365404
1.540165E-6	-48.523237
1.54021E-6	-48.474059
1.540255E-6	-48.193008
1.5403E-6	-46.829819
1.540345E-6	-39.442395
1.54039E-6	-25.218666
1.540435E-6	-19.139963
1.54048E-6	-16.540385
1.540525E-6	-15.833595
1.54057E-6	-15.686362
1.540615E-6	-15.611413
1.54066E-6	-15.592483
1.540705E-6	-15.841923
1.54075E-6	-17.488487
1.540795E-6	-21.645631
1.54084E-6	-30.131387
1.540885E-6	-40.200421
1.54093E-6	-45.877075
1.540975E-6	-47.859513
1.54102E-6	-48.320922
1.541065E-6	-48.416375
1.54111E-6	-48.23041
1.541155E-6	-46.593576
1.5412E-6	-43.900856
1.541245E-6	-42.229358
1.54129E-6	-41.614027
1.541335E-6	-41.458155
1.54138E-6	-41.447232
1.541425E-6	-41.428485
1.54147E-6	-41.435732
1.541515E-6	-41.540962
1.54156E-6	-42.261404
1.541605E-6	-44.168012
1.54165E-6	-46.734593
1.541695E-6	-48.136088
1.54174E-6	-48.383326
1.541785E-6	-48.365404
1.54183E-6	-48.150248
1.541875E-6	-47.092978
1.54192E-6	-42.216317
1.541965E-6	-27.050931
1.54201E-6	-19.892761
1.542055E-6	-16.794383
1.5421E-6	-15.895602
1.542145E-6	-15.668705
1.54219E-6	-15.62408
1.542235E-6	-15.601938
1.54228E-6	-15.710557
1.542325E-6	-16.861328
1.54237E-6	-20.24798
1.542415E-6	-28.164455
1.54246E-6	-38.141746
1.542505E-6	-44.839938
1.54255E-6	-47.47147
1.542595E-6	-48.119156
1.54264E-6	-48.265224
1.542685E-6	-48.204482
1.54273E-6	-46.9897
1.542775E-6	-44.246967
1.54282E-6	-42.156681
1.542865E-6	-41.323558
1.54291E-6	-41.136221
1.542955E-6	-41.109786
1.543E-6	-41.099145
1.543045E-6	-41.085741
1.54309E-6	-41.128893
1.543135E-6	-41.63486
1.54318E-6	-43.210266
1.543225E-6	-45.865326
1.54327E-6	-47.762445
1.543315E-6	-48.233301
1.54336E-6	-48.250684
1.543405E-6	-48.133261
1.54345E-6	-47.478754
1.543495E-6	-44.416515
1.54354E-6	-30.979427
1.543585E-6	-21.628537
1.54363E-6	-17.599502
1.543675E-6	-16.174427
1.54372E-6	-15.926091
1.543765E-6	-15.870357
1.54381E-6	-15.831931
1.543855E-6	-15.858626
1.5439E-6	-16.50334
1.543945E-6	-19.154237
1.54399E-6	-25.244741
1.544035E-6	-35.027938
1.54408E-6	-43.130957
1.544125E-6	-46.985359
1.54417E-6	-47.939841
1.544215E-6	-48.158766
1.54426E-6	-48.198741
1.544305E-6	-47.488487
1.54435E-6	-44.905286
1.544395E-6	-42.442776
1.54444E-6	-41.247072
1.544485E-6	-40.93665
1.54453E-6	-40.89429
1.544575E-6	-40.886293
1.54462E-6	-40.883631
1.544665E-6	-40.902301
1.54471E-6	-41.165657
1.544755E-6	-42.319542
1.5448E-6	-44.784697
1.544845E-6	-47.23998
1.54489E-6	-48.116341
1.544935E-6	-48.210231
1.54498E-6	-48.144578
1.545025E-6	-47.770236
1.54507E-6	-46.031036
1.545115E-6	-35.422695
1.54516E-6	-23.662287
1.545205E-6	-18.557372
1.54525E-6	-16.491707
1.545295E-6	-16.053732
1.54534E-6	-15.979106
1.545385E-6	-15.924392
1.54543E-6	-15.961934
1.545475E-6	-16.309698
1.54552E-6	-18.124793
1.545565E-6	-22.656803
1.54561E-6	-31.551502
1.545655E-6	-41.074046
1.5457E-6	-46.170829
1.545745E-6	-47.734001
1.54579E-6	-48.091083
1.545835E-6	-48.193008
1.54588E-6	-47.94525
1.545925E-6	-46.071273
1.54597E-6	-43.229408
1.546015E-6	-41.507649
1.54606E-6	-40.961507
1.546105E-6	-40.856568
1.54615E-6	-40.867691
1.546195E-6	-40.831777
1.54624E-6	-40.833355
1.546285E-6	-40.952304
1.54633E-6	-41.692189
1.546375E-6	-43.628106
1.54642E-6	-46.317131
1.546465E-6	-47.896815
1.54651E-6	-48.193008
1.546555E-6	-48.184422
1.5466E-6	-48.029953
1.546645E-6	-47.139929
1.54669E-6	-42.481053
1.546735E-6	-28.297383
1.54678E-6	-20.447935
1.546825E-6	-17.286231
1.54687E-6	-16.272721
1.546915E-6	-16.090649
1.54696E-6	-16.062494
1.547005E-6	-16.064248
1.54705E-6	-16.187044
1.547095E-6	-17.155693
1.54714E-6	-20.245682
1.547185E-6	-27.251497
1.54723E-6	-37.316561
1.547275E-6	-44.514877
1.54732E-6	-47.263044
1.547365E-6	-47.999707
1.54741E-6	-48.147412
1.547455E-6	-48.136088
1.5475E-6	-47.124222
1.547545E-6	-44.408118
1.54759E-6	-42.137456
1.547635E-6	-41.11652
1.54768E-6	-40.883631
1.547725E-6	-40.850754
1.54777E-6	-40.850754
1.547815E-6	-40.863451
1.54786E-6	-40.91515
1.547905E-6	-41.28077
1.54795E-6	-42.586908
1.547995E-6	-45.100415
1.54804E-6	-47.392133
1.548085E-6	-48.110715
1.54813E-6	-48.215987
1.548175E-6	-48.138916
1.54822E-6	-47.718564
1.548265E-6	-45.775743
1.54831E-6	-34.858509
1.548355E-6	-23.404641
1.5484E-6	-18.554258
1.548445E-6	-16.601512
1.54849E-6	-16.13501
1.548535E-6	-16.083593
1.54858E-6	-16.07303
1.548625E-6	-16.094181
1.54867E-6	-16.428277
1.548715E-6	-18.297383
1.54876E-6	-23.036436
1.548805E-6	-31.900365
1.54885E-6	-41.406215
1.548895E-6	-46.322715
1.54894E-6	-47.762445
1.548985E-6	-48.079904
1.54903E-6	-48.158766
1.549075E-6	-47.872798
1.54912E-6	-46.004993
1.549165E-6	-43.249553
1.54921E-6	-41.587657
1.549255E-6	-41.001248
1.5493E-6	-40.887358
1.549345E-6	-40.870344
1.54939E-6	-40.898026
1.549435E-6	-40.873529
1.54948E-6	-40.940423
1.549525E-6	-41.63233
1.54957E-6	-43.515424
1.549615E-6	-46.206945
1.54966E-6	-47.822529
1.549705E-6	-48.153086
1.54975E-6	-48.138916
1.549795E-6	-47.980569
1.54984E-6	-47.162466
1.549885E-6	-43.236723
1.54993E-6	-29.147094
1.549975E-6	-20.742755
1.55002E-6	-17.33298
1.550065E-6	-16.223296
1.55011E-6	-16.051982
1.550155E-6	-16.039751
1.5502E-6	-16.027554
1.550245E-6	-16.074789
1.55029E-6	-16.753061
1.550335E-6	-19.442395
1.55038E-6	-25.652715
1.550425E-6	-35.88212
1.55047E-6	-43.712025
1.550515E-6	-46.987529
1.55056E-6	-47.864822
1.550605E-6	-48.04931
1.55065E-6	-48.077114
1.550695E-6	-47.370745
1.55074E-6	-44.805658
1.550785E-6	-42.375465
1.55083E-6	-41.175324
1.550875E-6	-40.844419
1.55092E-6	-40.786257
1.550965E-6	-40.792507
1.55101E-6	-40.789381
1.551055E-6	-40.773264
1.5511E-6	-41.000701
1.551145E-6	-42.070483
1.55119E-6	-44.444219
1.551235E-6	-46.983191
1.55128E-6	-47.961515
1.551325E-6	-48.08549
1.55137E-6	-48.043771
1.551415E-6	-47.791078
1.55146E-6	-46.520848
1.551505E-6	-39.804683
1.55155E-6	-25.712175
1.551595E-6	-19.473061
1.55164E-6	-16.857113
1.551685E-6	-16.161846
1.55173E-6	-16.06074
1.551775E-6	-16.046736
1.55182E-6	-16.010189
1.551865E-6	-16.17983
1.55191E-6	-17.459355
1.551955E-6	-21.142996
1.552E-6	-29.143527
1.552045E-6	-38.867253
1.55209E-6	-45.111674
1.552135E-6	-47.366007
1.55218E-6	-47.891466
1.552225E-6	-47.999707
1.55227E-6	-47.93714
1.552315E-6	-46.619421
1.55236E-6	-43.773716
1.552405E-6	-41.683861
1.55245E-6	-40.850754
1.552495E-6	-40.673233
1.55254E-6	-40.639389
1.552585E-6	-40.640899
1.55263E-6	-40.635365
1.552675E-6	-40.663609
1.55272E-6	-41.075715
1.552765E-6	-42.54769
1.55281E-6	-45.179844
1.552855E-6	-47.344747
1.5529E-6	-47.94525
1.552945E-6	-47.988761
1.55299E-6	-47.915586
1.553035E-6	-47.461776
1.55308E-6	-45.355105
1.553125E-6	-34.007721
1.55317E-6	-22.772016
1.553215E-6	-18.16161
1.55326E-6	-16.38461
1.553305E-6	-16.018863
1.55335E-6	-15.912514
1.553395E-6	-15.887171
1.55344E-6	-15.872036
1.553485E-6	-16.223296
1.55353E-6	-18.175853
1.553575E-6	-22.765443
1.55362E-6	-31.469105
1.553665E-6	-40.940962
1.55371E-6	-45.948245
1.553755E-6	-47.520267
1.5538E-6	-47.85421
1.553845E-6	-47.93714
1.55389E-6	-47.695511
1.553935E-6	-45.798792
1.55398E-6	-42.928558
1.554025E-6	-41.199299
1.55407E-6	-40.621813
1.554115E-6	-40.506588
1.55416E-6	-40.480314
1.554205E-6	-40.45661
1.55425E-6	-40.458057
1.554295E-6	-40.536951
1.55434E-6	-41.18216
1.554385E-6	-42.944784
1.55443E-6	-45.643149
1.554475E-6	-47.490923
1.55452E-6	-47.90217
1.554565E-6	-47.93444
1.55461E-6	-47.804155
1.554655E-6	-47.162466
1.5547E-6	-44.047243
1.554745E-6	-30.679831
1.55479E-6	-21.448444
1.554835E-6	-17.703182
1.55488E-6	-16.397854
1.554925E-6	-16.069515
1.55497E-6	-16.011923
1.555015E-6	-16.001533
1.55506E-6	-16.051982
1.555105E-6	-16.485902
1.55515E-6	-18.683813
1.555195E-6	-24.050553
1.55524E-6	-33.632113
1.555285E-6	-42.176707
1.55533E-6	-46.407338
1.555375E-6	-47.579558
1.55542E-6	-47.809397
1.555465E-6	-47.856861
1.55551E-6	-47.411234
1.555555E-6	-45.120137
1.5556E-6	-42.398792
1.555645E-6	-40.877779
1.55569E-6	-40.429677
1.555735E-6	-40.34234
1.55578E-6	-40.323584
1.555825E-6	-40.308171
1.55587E-6	-40.32452
1.555915E-6	-40.457575
1.55596E-6	-41.221681
1.556005E-6	-43.244049
1.55605E-6	-45.992894
1.556095E-6	-47.549811
1.55614E-6	-47.859513
1.556185E-6	-47.85421
1.55623E-6	-47.721133
1.556275E-6	-46.942188
1.55632E-6	-43.197552
1.556365E-6	-28.985966
1.55641E-6	-20.869283
1.556455E-6	-17.373117
1.5565E-6	-16.221476
1.556545E-6	-16.006725
1.55659E-6	-15.970512
1.556635E-6	-15.982549
1.55668E-6	-16.017127
1.556725E-6	-16.637404
1.55677E-6	-19.219058
1.556815E-6	-25.189876
1.55686E-6	-34.897232
1.556905E-6	-42.949064
1.55695E-6	-46.621416
1.556995E-6	-47.584535
1.55704E-6	-47.770236
1.557085E-6	-47.809397
1.55713E-6	-47.283907
1.557175E-6	-44.861168
1.55722E-6	-42.14599
1.557265E-6	-40.803467
1.55731E-6	-40.391013
1.557355E-6	-40.320778
1.5574E-6	-40.339991
1.557445E-6	-40.355989
1.55749E-6	-40.348454
1.557535E-6	-40.495378
1.55758E-6	-41.348368
1.557625E-6	-43.477537
1.55767E-6	-46.217839
1.557715E-6	-47.62205
1.55776E-6	-47.862167
1.557805E-6	-47.848914
1.55785E-6	-47.692957
1.557895E-6	-46.85922
1.55794E-6	-42.701066
1.557985E-6	-28.620133
1.55803E-6	-20.608803
1.558075E-6	-17.295541
1.55812E-6	-16.101254
1.558165E-6	-15.912514
1.55821E-6	-15.902359
1.558255E-6	-15.900669
1.5583E-6	-15.956795
1.558345E-6	-16.685727
1.55839E-6	-19.480761
1.558435E-6	-25.728386
1.55848E-6	-35.619325
1.558525E-6	-43.3762
1.55857E-6	-46.767479
1.558615E-6	-47.657359
1.55866E-6	-47.840982
1.558705E-6	-47.888795
1.55875E-6	-47.344747
1.558795E-6	-44.930893
1.55884E-6	-42.282656
1.558885E-6	-40.968015
1.55893E-6	-40.603809
1.558975E-6	-40.55616
1.55902E-6	-40.577438
1.559065E-6	-40.569014
1.55911E-6	-40.566044
1.559155E-6	-40.739664
1.5592E-6	-41.592668
1.559245E-6	-43.665315
1.55929E-6	-46.3865
1.559335E-6	-47.718564
1.55938E-6	-47.969671
1.559425E-6	-47.950665
1.55947E-6	-47.796304
1.559515E-6	-46.914356
1.55956E-6	-42.343314
1.559605E-6	-28.262312
1.55965E-6	-20.366845
1.559695E-6	-17.14893
1.55974E-6	-16.160052
1.559785E-6	-16.024076
1.55983E-6	-16.015392
1.559875E-6	-16.039751
1.55992E-6	-16.154674
1.559965E-6	-16.85922
1.56001E-6	-19.550685
1.560055E-6	-25.909126
1.5601E-6	-36.122543
1.560145E-6	-43.531064
1.56019E-6	-46.848697
1.560235E-6	-47.809397
1.56028E-6	-48.021683
1.560325E-6	-48.077114
1.56037E-6	-47.647241
1.560415E-6	-45.422695
1.56046E-6	-42.855026
1.560505E-6	-41.466669
1.56055E-6	-41.092996
1.560595E-6	-41.054071
1.56064E-6	-41.054071
1.560685E-6	-41.061273
1.56073E-6	-41.081282
1.560775E-6	-41.236089
1.56082E-6	-42.034257
1.560865E-6	-43.992449
1.56091E-6	-46.609463
1.560955E-6	-47.92635
1.561E-6	-48.167302
1.561045E-6	-48.178708
1.56109E-6	-48.043771
1.561135E-6	-47.210179
1.56118E-6	-43.336693
1.561225E-6	-29.172146
1.56127E-6	-20.636874
1.561315E-6	-17.155693
1.56136E-6	-16.055483
1.561405E-6	-15.892228
1.56145E-6	-15.914209
1.561495E-6	-15.967079
1.56154E-6	-16.058987
1.561585E-6	-16.683703
1.56163E-6	-19.197344
1.561675E-6	-25.000381
1.56172E-6	-34.721124
1.561765E-6	-43.003357
1.56181E-6	-46.907958
1.561855E-6	-48.024438
1.5619E-6	-48.271053
1.561945E-6	-48.335699
1.56199E-6	-48.074325
1.562035E-6	-46.283781
1.56208E-6	-43.739678
1.562125E-6	-42.27385
1.56217E-6	-41.808511
1.562215E-6	-41.735365
1.56226E-6	-41.73666
1.562305E-6	-41.760695
1.56235E-6	-41.771131
1.562395E-6	-41.875546
1.56244E-6	-42.488749
1.562485E-6	-44.157819
1.56253E-6	-46.552149
1.562575E-6	-48.107905
1.56262E-6	-48.452718
1.562665E-6	-48.486301
1.56271E-6	-48.38632
1.562755E-6	-47.809397
1.5628E-6	-45.077985
1.562845E-6	-32.371714
1.56289E-6	-21.874877
1.562935E-6	-17.56962
1.56298E-6	-15.998075
1.563025E-6	-15.712175
1.56307E-6	-15.73001
1.563115E-6	-15.820304
1.56316E-6	-15.929492
1.563205E-6	-16.337639
1.56325E-6	-18.329782
1.563295E-6	-23.116692
1.56334E-6	-32.411638
1.563385E-6	-41.624747
1.56343E-6	-46.49752
