Wavelength (nm)	Power (dBm)
1.525E-6	-46.912222
1.525045E-6	-46.815193
1.52509E-6	-46.726411
1.525135E-6	-46.651443
1.52518E-6	-46.569855
1.525225E-6	-46.466609
1.52527E-6	-46.373291
1.525315E-6	-46.27088
1.52536E-6	-46.152883
1.525405E-6	-46.074789
1.52545E-6	-45.982549
1.525495E-6	-45.850267
1.52554E-6	-45.718652
1.525585E-6	-45.609833
1.52563E-6	-45.50059
1.525675E-6	-45.398542
1.52572E-6	-45.26659
1.525765E-6	-45.224447
1.52581E-6	-45.120137
1.525855E-6	-45.082182
1.5259E-6	-45.048721
1.525945E-6	-45.022413
1.52599E-6	-44.979828
1.526035E-6	-44.907975
1.52608E-6	-44.843911
1.526125E-6	-44.774254
1.52617E-6	-44.696722
1.526215E-6	-44.604221
1.52626E-6	-44.489161
1.526305E-6	-44.345064
1.52635E-6	-44.217047
1.526395E-6	-44.152166
1.52644E-6	-44.06271
1.526485E-6	-43.984832
1.52653E-6	-43.926522
1.526575E-6	-43.861582
1.52662E-6	-43.832095
1.526665E-6	-43.851028
1.52671E-6	-43.866868
1.526755E-6	-43.880644
1.5268E-6	-43.860525
1.526845E-6	-43.792395
1.52689E-6	-43.739678
1.526935E-6	-43.67138
1.52698E-6	-43.631111
1.527025E-6	-43.543813
1.52707E-6	-43.386607
1.527115E-6	-43.240385
1.52716E-6	-43.136319
1.527205E-6	-43.075938
1.52725E-6	-43.032069
1.527295E-6	-42.993828
1.52734E-6	-42.939653
1.527385E-6	-42.955063
1.52743E-6	-42.997291
1.527475E-6	-43.077702
1.52752E-6	-43.15963
1.527565E-6	-43.156035
1.52761E-6	-43.130064
1.527655E-6	-43.116692
1.5277E-6	-43.036436
1.527745E-6	-43.041682
1.52779E-6	-42.968807
1.527835E-6	-42.812493
1.52788E-6	-42.641617
1.527925E-6	-42.530546
1.52797E-6	-42.481822
1.528015E-6	-42.442013
1.52806E-6	-42.448114
1.528105E-6	-42.417696
1.52815E-6	-42.397283
1.528195E-6	-42.453459
1.52824E-6	-42.616159
1.528285E-6	-42.738435
1.52833E-6	-42.811663
1.528375E-6	-42.768728
1.52842E-6	-42.740067
1.528465E-6	-42.71971
1.52851E-6	-42.720523
1.528555E-6	-42.708352
1.5286E-6	-42.550815
1.528645E-6	-42.358986
1.52869E-6	-42.21487
1.528735E-6	-42.185319
1.52878E-6	-42.178141
1.528825E-6	-42.165967
1.52887E-6	-42.153114
1.528915E-6	-42.139588
1.52896E-6	-42.197547
1.529005E-6	-42.353009
1.52905E-6	-42.537551
1.529095E-6	-42.612987
1.52914E-6	-42.642415
1.529185E-6	-42.621715
1.52923E-6	-42.584545
1.529275E-6	-42.616159
1.52932E-6	-42.612987
1.529365E-6	-42.487979
1.52941E-6	-42.296636
1.529455E-6	-42.124687
1.5295E-6	-42.087305
1.529545E-6	-42.039116
1.52959E-6	-42.071882
1.529635E-6	-42.04398
1.52968E-6	-42.043285
1.529725E-6	-42.095037
1.52977E-6	-42.222833
1.529815E-6	-42.419212
1.52986E-6	-42.564118
1.529905E-6	-42.577463
1.52995E-6	-42.593216
1.529995E-6	-42.577463
1.53004E-6	-42.602695
1.530085E-6	-42.601904
1.53013E-6	-42.515019
1.530175E-6	-42.347786
1.53022E-6	-42.165967
1.530265E-6	-42.074682
1.53031E-6	-42.058606
1.530355E-6	-42.076784
1.5304E-6	-42.061398
1.530445E-6	-42.069783
1.53049E-6	-42.080989
1.530535E-6	-42.22066
1.53058E-6	-42.409368
1.530625E-6	-42.552378
1.53067E-6	-42.61378
1.530715E-6	-42.626483
1.53076E-6	-42.633645
1.530805E-6	-42.641617
1.53085E-6	-42.66161
1.530895E-6	-42.63046
1.53094E-6	-42.494916
1.530985E-6	-42.294425
1.53103E-6	-42.1846
1.531075E-6	-42.142432
1.53112E-6	-42.163822
1.531165E-6	-42.153114
1.53121E-6	-42.14101
1.531255E-6	-42.173841
1.5313E-6	-42.227907
1.531345E-6	-42.4344
1.53139E-6	-42.624098
1.531435E-6	-42.721336
1.53148E-6	-42.762981
1.531525E-6	-42.773661
1.53157E-6	-42.795099
1.531615E-6	-42.80503
1.53166E-6	-42.811663
1.531705E-6	-42.708352
1.53175E-6	-42.50805
1.531795E-6	-42.363474
1.53184E-6	-42.320283
1.531885E-6	-42.356744
1.53193E-6	-42.338103
1.531975E-6	-42.335872
1.53202E-6	-42.370965
1.532065E-6	-42.429078
1.53211E-6	-42.557853
1.532155E-6	-42.774483
1.5322E-6	-42.946495
1.532245E-6	-42.982594
1.53229E-6	-43.018124
1.532335E-6	-43.019865
1.53238E-6	-43.062731
1.532425E-6	-43.056581
1.53247E-6	-43.012037
1.532515E-6	-42.90052
1.53256E-6	-42.697023
1.532605E-6	-42.618539
1.53265E-6	-42.601113
1.532695E-6	-42.612194
1.53274E-6	-42.636035
1.532785E-6	-42.676867
1.53283E-6	-42.697832
1.532875E-6	-42.807516
1.53292E-6	-43.035562
1.532965E-6	-43.212996
1.53301E-6	-43.304042
1.533055E-6	-43.343252
1.5331E-6	-43.397038
1.533145E-6	-43.437101
1.53319E-6	-43.436143
1.533235E-6	-43.430398
1.53328E-6	-43.356401
1.533325E-6	-43.170431
1.53337E-6	-43.058337
1.533415E-6	-42.997291
1.53346E-6	-43.016384
1.533505E-6	-43.054825
1.53355E-6	-43.121145
1.533595E-6	-43.153341
1.53364E-6	-43.20663
1.533685E-6	-43.373366
1.53373E-6	-43.604139
1.533775E-6	-43.742761
1.53382E-6	-43.816381
1.533865E-6	-43.864753
1.53391E-6	-43.894463
1.533955E-6	-43.91688
1.534E-6	-43.952341
1.534045E-6	-43.908326
1.53409E-6	-43.785121
1.534135E-6	-43.620102
1.53418E-6	-43.541849
1.534225E-6	-43.574366
1.53427E-6	-43.574366
1.534315E-6	-43.625103
1.53436E-6	-43.661277
1.534405E-6	-43.693688
1.53445E-6	-43.816381
1.534495E-6	-44.03953
1.53454E-6	-44.248122
1.534585E-6	-44.347427
1.53463E-6	-44.40213
1.534675E-6	-44.427335
1.53472E-6	-44.455108
1.534765E-6	-44.473318
1.53481E-6	-44.502613
1.534855E-6	-44.393761
1.5349E-6	-44.240044
1.534945E-6	-44.125135
1.53499E-6	-44.102737
1.535035E-6	-44.148778
1.53508E-6	-44.179366
1.535125E-6	-44.217047
1.53517E-6	-44.243504
1.535215E-6	-44.323856
1.53526E-6	-44.522253
1.535305E-6	-44.753443
1.53535E-6	-44.9026
1.535395E-6	-44.944431
1.53544E-6	-44.982563
1.535485E-6	-45.015516
1.53553E-6	-45.034855
1.535575E-6	-45.047333
1.53562E-6	-45.014138
1.535665E-6	-44.882503
1.53571E-6	-44.712118
1.535755E-6	-44.648325
1.5358E-6	-44.66991
1.535845E-6	-44.743075
1.53589E-6	-44.756039
1.535935E-6	-44.774254
1.53598E-6	-44.810914
1.536025E-6	-44.945787
1.53607E-6	-45.149888
1.536115E-6	-45.356595
1.53616E-6	-45.44546
1.536205E-6	-45.479068
1.53625E-6	-45.482136
1.536295E-6	-45.523769
1.53634E-6	-45.533075
1.536385E-6	-45.554868
1.53643E-6	-45.434821
1.536475E-6	-45.217222
1.53652E-6	-45.118725
1.536565E-6	-45.103227
1.53661E-6	-45.120137
1.536655E-6	-45.135695
1.5367E-6	-45.16698
1.536745E-6	-45.184141
1.53679E-6	-45.269512
1.536835E-6	-45.43634
1.53688E-6	-45.675117
1.536925E-6	-45.810362
1.53697E-6	-45.840256
1.537015E-6	-45.845258
1.53706E-6	-45.880438
1.537105E-6	-45.892228
1.53715E-6	-45.920995
1.537195E-6	-45.850267
1.53724E-6	-45.657505
1.537285E-6	-45.483671
1.53733E-6	-45.416644
1.537375E-6	-45.40306
1.53742E-6	-45.428754
1.537465E-6	-45.431787
1.53751E-6	-45.450028
1.537555E-6	-45.468346
1.5376E-6	-45.590909
1.537645E-6	-45.828606
1.53769E-6	-46.006725
1.537735E-6	-46.057235
1.53778E-6	-46.08712
1.537825E-6	-46.076548
1.53787E-6	-46.088884
1.537915E-6	-46.117211
1.53796E-6	-46.090649
1.538005E-6	-45.938006
1.53805E-6	-45.728386
1.538095E-6	-45.592483
1.53814E-6	-45.568935
1.538185E-6	-45.539291
1.53823E-6	-45.542402
1.538275E-6	-45.547072
1.53832E-6	-45.562678
1.538365E-6	-45.609833
1.53841E-6	-45.790546
1.538455E-6	-46.027554
1.5385E-6	-46.127882
1.538545E-6	-46.158259
1.53859E-6	-46.167233
1.538635E-6	-46.160052
1.53868E-6	-46.165437
1.538725E-6	-46.183435
1.53877E-6	-46.085356
1.538815E-6	-45.878756
1.53886E-6	-45.673513
1.538905E-6	-45.597208
1.53895E-6	-45.575202
1.538995E-6	-45.56737
1.53904E-6	-45.534628
1.539085E-6	-45.52842
1.53913E-6	-45.562678
1.539175E-6	-45.670307
1.53922E-6	-45.883803
1.539265E-6	-46.06074
1.53931E-6	-46.14215
1.539355E-6	-46.152883
1.5394E-6	-46.158259
1.539445E-6	-46.14215
1.53949E-6	-46.151092
1.539535E-6	-46.110112
1.53958E-6	-45.958508
1.539625E-6	-45.723516
1.53967E-6	-45.553308
1.539715E-6	-45.483671
1.53976E-6	-45.469876
1.539805E-6	-45.457651
1.53985E-6	-45.43634
1.539895E-6	-45.459177
1.53994E-6	-45.503673
1.539985E-6	-45.667103
1.54003E-6	-45.880438
1.540075E-6	-46.029295
1.54012E-6	-46.039751
1.540165E-6	-46.053732
1.54021E-6	-46.057235
1.540255E-6	-46.032777
1.5403E-6	-46.013657
1.540345E-6	-45.958508
1.54039E-6	-45.744658
1.540435E-6	-45.519123
1.54048E-6	-45.394028
1.540525E-6	-45.355105
1.54057E-6	-45.331324
1.540615E-6	-45.313573
1.54066E-6	-45.332806
1.540705E-6	-45.331324
1.54075E-6	-45.410601
1.540795E-6	-45.617742
1.54084E-6	-45.840256
1.540885E-6	-45.922693
1.54093E-6	-45.932895
1.540975E-6	-45.927791
1.54102E-6	-45.907433
1.541065E-6	-45.888856
1.54111E-6	-45.858626
1.541155E-6	-45.746288
1.5412E-6	-45.520671
1.541245E-6	-45.290018
1.54129E-6	-45.214335
1.541335E-6	-45.181276
1.54138E-6	-45.176982
1.541425E-6	-45.16698
1.54147E-6	-45.174122
1.541515E-6	-45.205687
1.54156E-6	-45.312097
1.541605E-6	-45.570501
1.54165E-6	-45.757719
1.541695E-6	-45.793842
1.54174E-6	-45.797141
1.541785E-6	-45.780672
1.54183E-6	-45.75445
1.541875E-6	-45.765903
1.54192E-6	-45.710557
1.541965E-6	-45.531523
1.54201E-6	-45.279753
1.542055E-6	-45.117314
1.5421E-6	-45.044557
1.542145E-6	-45.055671
1.54219E-6	-45.062632
1.542235E-6	-45.0515
1.54228E-6	-45.064026
1.542325E-6	-45.111674
1.54237E-6	-45.30178
1.542415E-6	-45.52842
1.54246E-6	-45.659104
1.542505E-6	-45.686362
1.54255E-6	-45.678327
1.542595E-6	-45.689581
1.54264E-6	-45.668705
1.542685E-6	-45.652715
1.54273E-6	-45.594057
1.542775E-6	-45.346171
1.54282E-6	-45.107448
1.542865E-6	-45.001755
1.54291E-6	-44.992148
1.542955E-6	-44.972998
1.543E-6	-44.989407
1.543045E-6	-44.962093
1.54309E-6	-44.988038
1.543135E-6	-45.104634
1.54318E-6	-45.326879
1.543225E-6	-45.542402
1.54327E-6	-45.614577
1.543315E-6	-45.633604
1.54336E-6	-45.635193
1.543405E-6	-45.633604
1.54345E-6	-45.625666
1.543495E-6	-45.608253
1.54354E-6	-45.472938
1.543585E-6	-45.204247
1.54363E-6	-45.011383
1.543675E-6	-44.959371
1.54372E-6	-44.970269
1.543765E-6	-44.962093
1.54381E-6	-44.985299
1.543855E-6	-44.947143
1.5439E-6	-44.992148
1.543945E-6	-45.152732
1.54399E-6	-45.427238
1.544035E-6	-45.598784
1.54408E-6	-45.646335
1.544125E-6	-45.643149
1.54417E-6	-45.628839
1.544215E-6	-45.646335
1.54426E-6	-45.643149
1.544305E-6	-45.597208
1.54435E-6	-45.394028
1.544395E-6	-45.147046
1.54444E-6	-45.004504
1.544485E-6	-44.986668
1.54453E-6	-44.986668
1.544575E-6	-44.988038
1.54462E-6	-44.977095
1.544665E-6	-45.001755
1.54471E-6	-45.055671
1.544755E-6	-45.285616
1.5448E-6	-45.52222
1.544845E-6	-45.630427
1.54489E-6	-45.644741
1.544935E-6	-45.646335
1.54498E-6	-45.616159
1.545025E-6	-45.465288
1.54507E-6	-44.571746
1.545115E-6	-36.160052
1.54516E-6	-25.651119
1.545205E-6	-20.719628
1.54525E-6	-18.777841
1.545295E-6	-18.374356
1.54534E-6	-18.294449
1.545385E-6	-18.285661
1.54543E-6	-18.288588
1.545475E-6	-18.807441
1.54552E-6	-21.024279
1.545565E-6	-26.307841
1.54561E-6	-36.169031
1.545655E-6	-43.018995
1.5457E-6	-45.111674
1.545745E-6	-45.57677
1.54579E-6	-45.676722
1.545835E-6	-45.721894
1.54588E-6	-45.707323
1.545925E-6	-45.597208
1.54597E-6	-45.37153
1.546015E-6	-45.164127
1.54606E-6	-45.103227
1.546105E-6	-45.09199
1.54615E-6	-45.094797
1.546195E-6	-45.089186
1.54624E-6	-45.097605
1.546285E-6	-45.132862
1.54633E-6	-45.278289
1.546375E-6	-45.520671
1.54642E-6	-45.697636
1.546465E-6	-45.752817
1.54651E-6	-45.757719
1.546555E-6	-45.762628
1.5466E-6	-45.717032
1.546645E-6	-45.374523
1.54669E-6	-42.681696
1.546735E-6	-30.065197
1.54678E-6	-22.569608
1.546825E-6	-19.496202
1.54687E-6	-18.557372
1.546915E-6	-18.410347
1.54696E-6	-18.362425
1.547005E-6	-18.392314
1.54705E-6	-18.548036
1.547095E-6	-19.829667
1.54714E-6	-23.527149
1.547185E-6	-31.146388
1.54723E-6	-40.572976
1.547275E-6	-44.647059
1.54732E-6	-45.575202
1.547365E-6	-45.772461
1.54741E-6	-45.808707
1.547455E-6	-45.820304
1.5475E-6	-45.772461
1.547545E-6	-45.586191
1.54759E-6	-45.353614
1.547635E-6	-45.223001
1.54768E-6	-45.189876
1.547725E-6	-45.187007
1.54777E-6	-45.187007
1.547815E-6	-45.195619
1.54786E-6	-45.22011
1.547905E-6	-45.295895
1.54795E-6	-45.502132
1.547995E-6	-45.73001
1.54804E-6	-45.853609
1.548085E-6	-45.883803
1.54813E-6	-45.885487
1.548175E-6	-45.861975
1.54822E-6	-45.684754
1.548265E-6	-44.793855
1.54831E-6	-35.967079
1.548355E-6	-25.154155
1.5484E-6	-20.540393
1.548445E-6	-18.790972
1.54849E-6	-18.395315
1.548535E-6	-18.306195
1.54858E-6	-18.315025
1.548625E-6	-18.341624
1.54867E-6	-18.840568
1.548715E-6	-21.187866
1.54876E-6	-26.840297
1.548805E-6	-36.595559
1.54885E-6	-43.155137
1.548895E-6	-45.344684
1.54894E-6	-45.76918
1.548985E-6	-45.8603
1.54903E-6	-45.877075
1.549075E-6	-45.870357
1.54912E-6	-45.772461
1.549165E-6	-45.52842
1.54921E-6	-45.322439
1.549255E-6	-45.225893
1.5493E-6	-45.208568
1.549345E-6	-45.215778
1.54939E-6	-45.218666
1.549435E-6	-45.215778
1.54948E-6	-45.234582
1.549525E-6	-45.358086
1.54957E-6	-45.611413
1.549615E-6	-45.820304
1.54966E-6	-45.895602
1.549705E-6	-45.895602
1.54975E-6	-45.88212
1.549795E-6	-45.818645
1.54984E-6	-45.460704
1.549885E-6	-43.29847
1.54993E-6	-30.781575
1.549975E-6	-22.667225
1.55002E-6	-19.34047
1.550065E-6	-18.323873
1.55011E-6	-18.178708
1.550155E-6	-18.138916
1.5502E-6	-18.107905
1.550245E-6	-18.184422
1.55029E-6	-19.132843
1.550335E-6	-22.251912
1.55038E-6	-29.597934
1.550425E-6	-39.262816
1.55047E-6	-44.288737
1.550515E-6	-45.531523
1.55056E-6	-45.777385
1.550605E-6	-45.828606
1.55065E-6	-45.851937
1.550695E-6	-45.828606
1.55074E-6	-45.636783
1.550785E-6	-45.367044
1.55083E-6	-45.182708
1.550875E-6	-45.147046
1.55092E-6	-45.134278
1.550965E-6	-45.131446
1.55101E-6	-45.131446
1.551055E-6	-45.122961
1.5511E-6	-45.165554
1.551145E-6	-45.358086
1.55119E-6	-45.651119
1.551235E-6	-45.820304
1.55128E-6	-45.845258
1.551325E-6	-45.83859
1.55137E-6	-45.826944
1.551415E-6	-45.833595
1.55146E-6	-45.831931
1.551505E-6	-45.774102
1.55155E-6	-45.543958
1.551595E-6	-45.254924
1.55164E-6	-45.094797
1.551685E-6	-45.073793
1.55173E-6	-45.059846
1.551775E-6	-45.064026
1.55182E-6	-45.041782
1.551865E-6	-45.044557
1.55191E-6	-45.114493
1.551955E-6	-45.352125
1.552E-6	-45.632015
1.552045E-6	-45.764265
1.55209E-6	-45.787252
1.552135E-6	-45.783961
1.55218E-6	-45.787252
1.552225E-6	-45.787252
1.55227E-6	-45.785606
1.552315E-6	-45.696024
1.55236E-6	-45.437858
1.552405E-6	-45.155578
1.55245E-6	-45.018273
1.552495E-6	-44.996263
1.55254E-6	-44.993519
1.552585E-6	-44.993519
1.55263E-6	-44.978461
1.552675E-6	-44.981195
1.55272E-6	-45.077985
1.552765E-6	-45.343198
1.55281E-6	-45.612995
1.552855E-6	-45.718652
1.5529E-6	-45.731635
1.552945E-6	-45.725139
1.55299E-6	-45.736514
1.553035E-6	-45.744658
1.55308E-6	-45.725139
1.553125E-6	-45.600361
1.55317E-6	-45.320961
1.553215E-6	-45.058454
1.55326E-6	-44.963455
1.553305E-6	-44.933597
1.55335E-6	-44.92414
1.553395E-6	-44.90663
1.55344E-6	-44.899915
1.553485E-6	-44.913356
1.55353E-6	-45.0515
1.553575E-6	-45.31505
1.55362E-6	-45.565805
1.553665E-6	-45.667103
1.55371E-6	-45.683147
1.553755E-6	-45.691191
1.5538E-6	-45.694412
1.553845E-6	-45.692801
1.55389E-6	-45.667103
1.553935E-6	-45.525319
1.55398E-6	-45.236032
1.554025E-6	-44.989407
1.55407E-6	-44.890531
1.554115E-6	-44.86516
1.55416E-6	-44.854522
1.554205E-6	-44.845236
1.55425E-6	-44.839938
1.554295E-6	-44.867824
1.55434E-6	-45.011383
1.554385E-6	-45.295895
1.55443E-6	-45.536182
1.554475E-6	-45.630427
1.55452E-6	-45.635193
1.554565E-6	-45.660702
1.55461E-6	-45.652715
1.554655E-6	-45.641556
1.5547E-6	-45.605094
1.554745E-6	-45.448505
1.55479E-6	-45.15131
1.554835E-6	-44.917397
1.55488E-6	-44.826721
1.554925E-6	-44.799097
1.55497E-6	-44.787311
1.555015E-6	-44.78339
1.55506E-6	-44.778167
1.555105E-6	-44.813545
1.55515E-6	-44.970269
1.555195E-6	-45.270973
1.55524E-6	-45.506759
1.555285E-6	-45.597208
1.55533E-6	-45.608253
1.555375E-6	-45.614577
1.55542E-6	-45.609833
1.555465E-6	-45.603516
1.55551E-6	-45.562678
1.555555E-6	-45.395532
1.5556E-6	-45.09199
1.555645E-6	-44.863829
1.55569E-6	-44.776862
1.555735E-6	-44.754741
1.55578E-6	-44.748256
1.555825E-6	-44.7379
1.55587E-6	-44.754741
1.555915E-6	-44.788619
1.55596E-6	-44.955291
1.556005E-6	-45.263671
1.55605E-6	-45.495969
1.556095E-6	-45.586191
1.55614E-6	-45.600361
1.556185E-6	-45.608253
1.55623E-6	-45.592483
1.556275E-6	-45.589336
1.55632E-6	-45.55799
1.556365E-6	-45.382014
1.55641E-6	-45.068209
1.556455E-6	-44.828041
1.5565E-6	-44.753443
1.556545E-6	-44.740487
1.55659E-6	-44.74178
1.556635E-6	-44.748256
1.55668E-6	-44.756039
1.556725E-6	-44.779472
1.55677E-6	-44.956651
1.556815E-6	-45.281218
1.55686E-6	-45.523769
1.556905E-6	-45.605094
1.55695E-6	-45.625666
1.556995E-6	-45.619325
1.55704E-6	-45.612995
1.557085E-6	-45.614577
1.55713E-6	-45.583049
1.557175E-6	-45.407583
1.55722E-6	-45.077985
1.557265E-6	-44.85718
1.55731E-6	-44.780778
1.557355E-6	-44.766438
1.5574E-6	-44.786004
1.557445E-6	-44.792545
1.55749E-6	-44.799097
1.557535E-6	-44.842586
1.55758E-6	-45.030704
1.557625E-6	-45.358086
1.55767E-6	-45.595632
1.557715E-6	-45.676722
1.55776E-6	-45.689581
1.557805E-6	-45.689581
1.55785E-6	-45.689581
1.557895E-6	-45.697636
1.55794E-6	-45.668705
1.557985E-6	-45.482136
1.55803E-6	-45.158426
1.558075E-6	-44.92414
1.55812E-6	-44.859838
1.558165E-6	-44.846561
1.55821E-6	-44.86516
1.558255E-6	-44.875825
1.5583E-6	-44.881166
1.558345E-6	-44.920093
1.55839E-6	-45.118725
1.558435E-6	-45.456125
1.55848E-6	-45.712175
1.558525E-6	-45.780672
1.55857E-6	-45.790546
1.558615E-6	-45.797141
1.55866E-6	-45.808707
1.558705E-6	-45.821963
1.55875E-6	-45.802094
1.558795E-6	-45.603516
1.55884E-6	-45.279753
1.558885E-6	-45.064026
1.55893E-6	-45.001755
1.558975E-6	-45.014138
1.55902E-6	-45.027938
1.559065E-6	-45.034855
1.55911E-6	-45.032087
1.559155E-6	-45.086383
1.5592E-6	-45.294425
1.559245E-6	-45.630427
1.55929E-6	-45.893915
1.559335E-6	-45.953373
1.55938E-6	-45.972229
1.559425E-6	-45.984272
1.55947E-6	-46.008457
1.559515E-6	-46.018863
1.55956E-6	-45.996347
1.559605E-6	-45.798792
1.55965E-6	-45.488278
1.559695E-6	-45.279753
1.55974E-6	-45.22011
1.559785E-6	-45.231684
1.55983E-6	-45.243288
1.559875E-6	-45.244741
1.55992E-6	-45.25638
1.559965E-6	-45.322439
1.56001E-6	-45.536182
1.560055E-6	-45.870357
1.5601E-6	-46.122543
1.560145E-6	-46.187044
1.56019E-6	-46.212388
1.560235E-6	-46.236056
1.56028E-6	-46.252517
1.560325E-6	-46.26904
1.56037E-6	-46.23423
1.560415E-6	-46.06074
1.56046E-6	-45.756084
1.560505E-6	-45.542402
1.56055E-6	-45.499049
1.560595E-6	-45.50059
1.56064E-6	-45.516029
1.560685E-6	-45.520671
1.56073E-6	-45.534628
1.560775E-6	-45.595632
1.56082E-6	-45.800443
1.560865E-6	-46.138579
1.56091E-6	-46.38839
1.560955E-6	-46.464684
1.561E-6	-46.493644
1.561045E-6	-46.524748
1.56109E-6	-46.556077
1.561135E-6	-46.569855
1.56118E-6	-46.546263
1.561225E-6	-46.382722
1.56127E-6	-46.085356
1.561315E-6	-45.868679
1.56136E-6	-45.828606
1.561405E-6	-45.825283
1.56145E-6	-45.840256
1.561495E-6	-45.861975
1.56154E-6	-45.877075
1.561585E-6	-45.938006
1.56163E-6	-46.13501
1.561675E-6	-46.447401
1.56172E-6	-46.712128
1.561765E-6	-46.806857
1.56181E-6	-46.840297
1.561855E-6	-46.869769
1.5619E-6	-46.895191
1.561945E-6	-46.899443
1.56199E-6	-46.899443
1.562035E-6	-46.765416
1.56208E-6	-46.483969
1.562125E-6	-46.26904
1.56217E-6	-46.197888
1.562215E-6	-46.197888
1.56226E-6	-46.205132
1.562305E-6	-46.237881
1.56235E-6	-46.265363
1.562395E-6	-46.309698
1.56244E-6	-46.474316
1.562485E-6	-46.790233
1.56253E-6	-47.046529
1.562575E-6	-47.18285
1.56262E-6	-47.230789
1.562665E-6	-47.251497
1.56271E-6	-47.283907
1.562755E-6	-47.293212
1.5628E-6	-47.288557
1.562845E-6	-47.189666
1.56289E-6	-46.920763
1.562935E-6	-46.689778
1.56298E-6	-46.605486
1.563025E-6	-46.609463
1.56307E-6	-46.623411
1.563115E-6	-46.655462
1.56316E-6	-46.683703
1.563205E-6	-46.722325
1.56325E-6	-46.873996
1.563295E-6	-47.173779
1.56334E-6	-47.464197
1.563385E-6	-47.604503
1.56343E-6	-47.664962
