Wavelength (nm)	Power (dBm)
1.525E-6	-47.923656
1.525045E-6	-47.817271
1.52509E-6	-47.723704
1.525135E-6	-47.632109
1.52518E-6	-47.535014
1.525225E-6	-47.428016
1.52527E-6	-47.340036
1.525315E-6	-47.244583
1.52536E-6	-47.164726
1.525405E-6	-47.050931
1.52545E-6	-46.959405
1.525495E-6	-46.852903
1.52554E-6	-46.74895
1.525585E-6	-46.655462
1.52563E-6	-46.561977
1.525675E-6	-46.466609
1.52572E-6	-46.377061
1.525765E-6	-46.298572
1.52581E-6	-46.221476
1.525855E-6	-46.167233
1.5259E-6	-46.090649
1.525945E-6	-46.032777
1.52599E-6	-45.973948
1.526035E-6	-45.905741
1.52608E-6	-45.870357
1.526125E-6	-45.76918
1.52617E-6	-45.699249
1.526215E-6	-45.625666
1.52626E-6	-45.52842
1.526305E-6	-45.439378
1.52635E-6	-45.352125
1.526395E-6	-45.278289
1.52644E-6	-45.218666
1.526485E-6	-45.148467
1.52653E-6	-45.087784
1.526575E-6	-45.034855
1.52662E-6	-45.004504
1.526665E-6	-44.937656
1.52671E-6	-44.93495
1.526755E-6	-44.91605
1.5268E-6	-44.861168
1.526845E-6	-44.830682
1.52689E-6	-44.761235
1.526935E-6	-44.717262
1.52698E-6	-44.6572
1.527025E-6	-44.602968
1.52707E-6	-44.49527
1.527115E-6	-44.410516
1.52716E-6	-44.334447
1.527205E-6	-44.281748
1.52725E-6	-44.249277
1.527295E-6	-44.201021
1.52734E-6	-44.169146
1.527385E-6	-44.135252
1.52743E-6	-44.143137
1.527475E-6	-44.15895
1.52752E-6	-44.187332
1.527565E-6	-44.174821
1.52761E-6	-44.143137
1.527655E-6	-44.113922
1.5277E-6	-44.072682
1.527745E-6	-44.066032
1.52779E-6	-44.011001
1.527835E-6	-43.943718
1.52788E-6	-43.825803
1.527925E-6	-43.76234
1.52797E-6	-43.73044
1.528015E-6	-43.701828
1.52806E-6	-43.697756
1.528105E-6	-43.675427
1.52815E-6	-43.653212
1.528195E-6	-43.679478
1.52824E-6	-43.73557
1.528285E-6	-43.789276
1.52833E-6	-43.815335
1.528375E-6	-43.791355
1.52842E-6	-43.775787
1.528465E-6	-43.760275
1.52851E-6	-43.756148
1.528555E-6	-43.761307
1.5286E-6	-43.681505
1.528645E-6	-43.575355
1.52869E-6	-43.501785
1.528735E-6	-43.463052
1.52878E-6	-43.46884
1.528825E-6	-43.459198
1.52887E-6	-43.484313
1.528915E-6	-43.451499
1.52896E-6	-43.456309
1.529005E-6	-43.534982
1.52905E-6	-43.620102
1.529095E-6	-43.675427
1.52914E-6	-43.672391
1.529185E-6	-43.64818
1.52923E-6	-43.643152
1.529275E-6	-43.656235
1.52932E-6	-43.656235
1.529365E-6	-43.619103
1.52941E-6	-43.534002
1.529455E-6	-43.441895
1.5295E-6	-43.408447
1.529545E-6	-43.408447
1.52959E-6	-43.421795
1.529635E-6	-43.39514
1.52968E-6	-43.394191
1.529725E-6	-43.407495
1.52977E-6	-43.475603
1.529815E-6	-43.572388
1.52986E-6	-43.665315
1.529905E-6	-43.657243
1.52995E-6	-43.657243
1.529995E-6	-43.645163
1.53004E-6	-43.658251
1.530085E-6	-43.689623
1.53013E-6	-43.657243
1.530175E-6	-43.577334
1.53022E-6	-43.485281
1.530265E-6	-43.428485
1.53031E-6	-43.439018
1.530355E-6	-43.443814
1.5304E-6	-43.429441
1.530445E-6	-43.429441
1.53049E-6	-43.448616
1.530535E-6	-43.497896
1.53058E-6	-43.578324
1.530625E-6	-43.682519
1.53067E-6	-43.72327
1.530715E-6	-43.711004
1.53076E-6	-43.721223
1.530805E-6	-43.73044
1.53085E-6	-43.763373
1.530895E-6	-43.736596
1.53094E-6	-43.677452
1.530985E-6	-43.59618
1.53103E-6	-43.536943
1.531075E-6	-43.520305
1.53112E-6	-43.538905
1.531165E-6	-43.538905
1.53121E-6	-43.534982
1.531255E-6	-43.540867
1.5313E-6	-43.591212
1.531345E-6	-43.693688
1.53139E-6	-43.77786
1.531435E-6	-43.826851
1.53148E-6	-43.853137
1.531525E-6	-43.854191
1.53157E-6	-43.878522
1.531615E-6	-43.905123
1.53166E-6	-43.894463
1.531705E-6	-43.865811
1.53175E-6	-43.78097
1.531795E-6	-43.7202
1.53184E-6	-43.696738
1.531885E-6	-43.717133
1.53193E-6	-43.712025
1.531975E-6	-43.695721
1.53202E-6	-43.724293
1.532065E-6	-43.773716
1.53211E-6	-43.840499
1.532155E-6	-43.949105
1.5322E-6	-44.041732
1.532245E-6	-44.067139
1.53229E-6	-44.08824
1.532335E-6	-44.107208
1.53238E-6	-44.124013
1.532425E-6	-44.153296
1.53247E-6	-44.12289
1.532515E-6	-44.066032
1.53256E-6	-44.004444
1.532605E-6	-43.967473
1.53265E-6	-43.977229
1.532695E-6	-43.9794
1.53274E-6	-44.003352
1.532785E-6	-44.028535
1.53283E-6	-44.053865
1.532875E-6	-44.094925
1.53292E-6	-44.19075
1.532965E-6	-44.301581
1.53301E-6	-44.372315
1.533055E-6	-44.42132
1.5331E-6	-44.443011
1.533145E-6	-44.459957
1.53319E-6	-44.468455
1.533235E-6	-44.491604
1.53328E-6	-44.459957
1.533325E-6	-44.380642
1.53337E-6	-44.332091
1.533415E-6	-44.343883
1.53346E-6	-44.335625
1.533505E-6	-44.352156
1.53355E-6	-44.391373
1.533595E-6	-44.436975
1.53364E-6	-44.46724
1.533685E-6	-44.556839
1.53373E-6	-44.677554
1.533775E-6	-44.761235
1.53382E-6	-44.805658
1.533865E-6	-44.845236
1.53391E-6	-44.86516
1.533955E-6	-44.913356
1.534E-6	-44.890531
1.534045E-6	-44.9026
1.53409E-6	-44.886515
1.534135E-6	-44.8096
1.53418E-6	-44.787311
1.534225E-6	-44.779472
1.53427E-6	-44.817493
1.534315E-6	-44.838614
1.53436E-6	-44.889192
1.534405E-6	-44.907975
1.53445E-6	-44.970269
1.534495E-6	-45.082182
1.53454E-6	-45.210009
1.534585E-6	-45.263671
1.53463E-6	-45.30178
1.534675E-6	-45.334289
1.53472E-6	-45.36107
1.534765E-6	-45.36107
1.53481E-6	-45.389519
1.534855E-6	-45.377518
1.5349E-6	-45.285616
1.534945E-6	-45.247648
1.53499E-6	-45.244741
1.535035E-6	-45.278289
1.53508E-6	-45.303252
1.535125E-6	-45.337257
1.53517E-6	-45.373026
1.535215E-6	-45.40306
1.53526E-6	-45.50059
1.535305E-6	-45.62408
1.53535E-6	-45.718652
1.535395E-6	-45.777385
1.53544E-6	-45.780672
1.535485E-6	-45.800443
1.53553E-6	-45.81533
1.535575E-6	-45.850267
1.53562E-6	-45.858626
1.535665E-6	-45.772461
1.53571E-6	-45.712175
1.535755E-6	-45.683147
1.5358E-6	-45.696024
1.535845E-6	-45.73001
1.53589E-6	-45.765903
1.535935E-6	-45.787252
1.53598E-6	-45.790546
1.536025E-6	-45.865326
1.53607E-6	-45.973948
1.536115E-6	-46.080069
1.53616E-6	-46.151092
1.536205E-6	-46.143937
1.53625E-6	-46.170829
1.536295E-6	-46.187044
1.53634E-6	-46.216021
1.536385E-6	-46.237881
1.53643E-6	-46.197888
1.536475E-6	-46.099485
1.53652E-6	-46.041496
1.536565E-6	-46.03452
1.53661E-6	-46.03452
1.536655E-6	-46.080069
1.5367E-6	-46.083593
1.536745E-6	-46.085356
1.53679E-6	-46.124322
1.536835E-6	-46.23423
1.53688E-6	-46.33577
1.536925E-6	-46.418747
1.53697E-6	-46.40544
1.537015E-6	-46.437829
1.53706E-6	-46.441655
1.537105E-6	-46.476245
1.53715E-6	-46.485902
1.537195E-6	-46.472388
1.53724E-6	-46.38839
1.537285E-6	-46.26904
1.53733E-6	-46.252517
1.537375E-6	-46.258017
1.53742E-6	-46.281935
1.537465E-6	-46.276404
1.53751E-6	-46.289321
1.537555E-6	-46.287474
1.5376E-6	-46.337639
1.537645E-6	-46.468535
1.53769E-6	-46.563945
1.537735E-6	-46.589614
1.53778E-6	-46.585655
1.537825E-6	-46.591595
1.53787E-6	-46.625407
1.537915E-6	-46.623411
1.53796E-6	-46.603498
1.538005E-6	-46.552149
1.53805E-6	-46.470461
1.538095E-6	-46.382722
1.53814E-6	-46.382722
1.538185E-6	-46.380834
1.53823E-6	-46.365761
1.538275E-6	-46.362001
1.53832E-6	-46.362001
1.538365E-6	-46.397854
1.53841E-6	-46.485902
1.538455E-6	-46.585655
1.5385E-6	-46.641411
1.538545E-6	-46.647427
1.53859E-6	-46.649435
1.538635E-6	-46.667543
1.53868E-6	-46.665527
1.538725E-6	-46.671577
1.53877E-6	-46.631402
1.538815E-6	-46.548224
1.53886E-6	-46.443569
1.538905E-6	-46.409238
1.53895E-6	-46.401645
1.538995E-6	-46.395959
1.53904E-6	-46.365761
1.539085E-6	-46.392173
1.53913E-6	-46.392173
1.539175E-6	-46.437829
1.53922E-6	-46.546263
1.539265E-6	-46.621416
1.53931E-6	-46.643415
1.539355E-6	-46.665527
1.5394E-6	-46.667543
1.539445E-6	-46.68168
1.53949E-6	-46.667543
1.539535E-6	-46.631402
1.53958E-6	-46.575773
1.539625E-6	-46.480105
1.53967E-6	-46.397854
1.539715E-6	-46.365761
1.53976E-6	-46.356366
1.539805E-6	-46.33017
1.53985E-6	-46.326441
1.539895E-6	-46.332036
1.53994E-6	-46.373291
1.539985E-6	-46.420652
1.54003E-6	-46.540385
1.540075E-6	-46.591595
1.54012E-6	-46.607474
1.540165E-6	-46.617428
1.54021E-6	-46.625407
1.540255E-6	-46.597542
1.5403E-6	-46.589614
1.540345E-6	-46.560009
1.54039E-6	-46.482037
1.540435E-6	-46.369524
1.54048E-6	-46.293019
1.540525E-6	-46.289321
1.54057E-6	-46.274562
1.540615E-6	-46.254349
1.54066E-6	-46.256183
1.540705E-6	-46.27088
1.54075E-6	-46.322715
1.540795E-6	-46.397854
1.54084E-6	-46.499459
1.540885E-6	-46.538427
1.54093E-6	-46.534514
1.540975E-6	-46.554113
1.54102E-6	-46.546263
1.541065E-6	-46.522798
1.54111E-6	-46.516951
1.541155E-6	-46.458916
1.5412E-6	-46.362001
1.541245E-6	-46.250684
1.54129E-6	-46.197888
1.541335E-6	-46.169031
1.54138E-6	-46.183435
1.541425E-6	-46.181632
1.54147E-6	-46.187044
1.541515E-6	-46.188849
1.54156E-6	-46.239708
1.541605E-6	-46.36388
1.54165E-6	-46.443569
1.541695E-6	-46.478175
1.54174E-6	-46.468535
1.541785E-6	-46.456994
1.54183E-6	-46.453154
1.541875E-6	-46.455074
1.54192E-6	-46.428277
1.541965E-6	-46.36388
1.54201E-6	-46.22876
1.542055E-6	-46.143937
1.5421E-6	-46.115435
1.542145E-6	-46.103025
1.54219E-6	-46.108339
1.542235E-6	-46.11366
1.54228E-6	-46.104795
1.542325E-6	-46.126102
1.54237E-6	-46.217839
1.542415E-6	-46.318991
1.54246E-6	-46.399749
1.542505E-6	-46.409238
1.54255E-6	-46.418747
1.542595E-6	-46.409238
1.54264E-6	-46.411138
1.542685E-6	-46.413039
1.54273E-6	-46.373291
1.542775E-6	-46.267201
1.54282E-6	-46.147513
1.542865E-6	-46.080069
1.54291E-6	-46.055483
1.542955E-6	-46.067759
1.543E-6	-46.080069
1.543045E-6	-46.064248
1.54309E-6	-46.06074
1.543135E-6	-46.115435
1.54318E-6	-46.221476
1.543225E-6	-46.341378
1.54327E-6	-46.380834
1.543315E-6	-46.380834
1.54336E-6	-46.371407
1.543405E-6	-46.3865
1.54345E-6	-46.3865
1.543495E-6	-46.375175
1.54354E-6	-46.333903
1.543585E-6	-46.201508
1.54363E-6	-46.101254
1.543675E-6	-46.051982
1.54372E-6	-46.044989
1.543765E-6	-46.064248
1.54381E-6	-46.050233
1.543855E-6	-46.055483
1.5439E-6	-46.081831
1.543945E-6	-46.149302
1.54399E-6	-46.285627
1.544035E-6	-46.394066
1.54408E-6	-46.401645
1.544125E-6	-46.409238
1.54417E-6	-46.394066
1.544215E-6	-46.401645
1.54426E-6	-46.411138
1.544305E-6	-46.414941
1.54435E-6	-46.311555
1.544395E-6	-46.176227
1.54444E-6	-46.103025
1.544485E-6	-46.074789
1.54453E-6	-46.074789
1.544575E-6	-46.085356
1.54462E-6	-46.088884
1.544665E-6	-46.080069
1.54471E-6	-46.11366
1.544755E-6	-46.22876
1.5448E-6	-46.373291
1.544845E-6	-46.432095
1.54489E-6	-46.434006
1.544935E-6	-46.42637
1.54498E-6	-46.434006
1.545025E-6	-46.362001
1.54507E-6	-45.984272
1.545115E-6	-40.785737
1.54516E-6	-30.529095
1.545205E-6	-24.979828
1.54525E-6	-22.784367
1.545295E-6	-22.26433
1.54534E-6	-22.2062
1.545385E-6	-22.198268
1.54543E-6	-22.187474
1.545475E-6	-22.601904
1.54552E-6	-24.545692
1.545565E-6	-29.408154
1.54561E-6	-38.486301
1.545655E-6	-44.590452
1.5457E-6	-46.108339
1.545745E-6	-46.392173
1.54579E-6	-46.470461
1.545835E-6	-46.489771
1.54588E-6	-46.49752
1.545925E-6	-46.439741
1.54597E-6	-46.320853
1.546015E-6	-46.206945
1.54606E-6	-46.172627
1.546105E-6	-46.169031
1.54615E-6	-46.17983
1.546195E-6	-46.163641
1.54624E-6	-46.169031
1.546285E-6	-46.190655
1.54633E-6	-46.267201
1.546375E-6	-46.397854
1.54642E-6	-46.509168
1.546465E-6	-46.522798
1.54651E-6	-46.548224
1.546555E-6	-46.554113
1.5466E-6	-46.563945
1.546645E-6	-46.567884
1.54669E-6	-46.554113
1.546735E-6	-46.466609
1.54678E-6	-46.35449
1.546825E-6	-46.261689
1.54687E-6	-46.239708
1.546915E-6	-46.232406
1.54696E-6	-46.225116
1.547005E-6	-46.236056
1.54705E-6	-46.239708
1.547095E-6	-46.26904
1.54714E-6	-46.356366
1.547185E-6	-46.485902
1.54723E-6	-46.567884
1.547275E-6	-46.597542
1.54732E-6	-46.603498
1.547365E-6	-46.615435
1.54741E-6	-46.617428
1.547455E-6	-46.607474
1.5475E-6	-46.581699
1.547545E-6	-46.495581
1.54759E-6	-46.371407
1.547635E-6	-46.302277
1.54768E-6	-46.283781
1.547725E-6	-46.274562
1.54777E-6	-46.276404
1.547815E-6	-46.285627
1.54786E-6	-46.307841
1.547905E-6	-46.339508
1.54795E-6	-46.434006
1.547995E-6	-46.558043
1.54804E-6	-46.631402
1.548085E-6	-46.667543
1.54813E-6	-46.68168
1.548175E-6	-46.677636
1.54822E-6	-46.677636
1.548265E-6	-46.667543
1.54831E-6	-46.627405
1.548355E-6	-46.524748
1.5484E-6	-46.413039
1.548445E-6	-46.343249
1.54849E-6	-46.324577
1.548535E-6	-46.317131
1.54858E-6	-46.317131
1.548625E-6	-46.34512
1.54867E-6	-46.34512
1.548715E-6	-46.390281
1.54876E-6	-46.49752
1.548805E-6	-46.627405
1.54885E-6	-46.691805
1.548895E-6	-46.712128
1.54894E-6	-46.714166
1.548985E-6	-46.708056
1.54903E-6	-46.708056
1.549075E-6	-46.699923
1.54912E-6	-46.649435
1.549165E-6	-46.532559
1.54921E-6	-46.413039
1.549255E-6	-46.362001
1.5493E-6	-46.343249
1.549345E-6	-46.352614
1.54939E-6	-46.356366
1.549435E-6	-46.35449
1.54948E-6	-46.367642
1.549525E-6	-46.424463
1.54957E-6	-46.550186
1.549615E-6	-46.68168
1.54966E-6	-46.722325
1.549705E-6	-46.724367
1.54975E-6	-46.718243
1.549795E-6	-46.683703
1.54984E-6	-46.540385
1.549885E-6	-45.551748
1.54993E-6	-35.55799
1.549975E-6	-26.9897
1.55002E-6	-23.40369
1.550065E-6	-22.237348
1.55011E-6	-22.055817
1.550155E-6	-22.012803
1.5502E-6	-22.010733
1.550245E-6	-22.062794
1.55029E-6	-22.822463
1.550335E-6	-25.654311
1.55038E-6	-32.010043
1.550425E-6	-41.284854
1.55047E-6	-45.639965
1.550515E-6	-46.50334
1.55056E-6	-46.659486
1.550605E-6	-46.693833
1.55065E-6	-46.706021
1.550695E-6	-46.712128
1.55074E-6	-46.619421
1.550785E-6	-46.489771
1.55083E-6	-46.369524
1.550875E-6	-46.339508
1.55092E-6	-46.341378
1.550965E-6	-46.343249
1.55101E-6	-46.346993
1.551055E-6	-46.337639
1.5511E-6	-46.348866
1.551145E-6	-46.443569
1.55119E-6	-46.603498
1.551235E-6	-46.706021
1.55128E-6	-46.728455
1.551325E-6	-46.714166
1.55137E-6	-46.708056
1.551415E-6	-46.708056
1.55146E-6	-46.714166
1.551505E-6	-46.697892
1.55155E-6	-46.593576
1.551595E-6	-46.434006
1.55164E-6	-46.337639
1.551685E-6	-46.311555
1.55173E-6	-46.318991
1.551775E-6	-46.320853
1.55182E-6	-46.317131
1.551865E-6	-46.304131
1.55191E-6	-46.328305
1.551955E-6	-46.447401
1.552E-6	-46.615435
1.552045E-6	-46.687752
1.55209E-6	-46.701955
1.552135E-6	-46.689778
1.55218E-6	-46.687752
1.552225E-6	-46.693833
1.55227E-6	-46.703988
1.552315E-6	-46.659486
1.55236E-6	-46.5267
1.552405E-6	-46.369524
1.55245E-6	-46.287474
1.552495E-6	-46.283781
1.55254E-6	-46.293019
1.552585E-6	-46.280091
1.55263E-6	-46.272721
1.552675E-6	-46.265363
1.55272E-6	-46.326441
1.552765E-6	-46.460838
1.55281E-6	-46.607474
1.552855E-6	-46.661499
1.5529E-6	-46.665527
1.552945E-6	-46.661499
1.55299E-6	-46.68168
1.553035E-6	-46.68168
1.55308E-6	-46.673596
1.553125E-6	-46.627405
1.55317E-6	-46.464684
1.553215E-6	-46.320853
1.55326E-6	-46.27088
1.553305E-6	-46.258017
1.55335E-6	-46.248853
1.553395E-6	-46.225116
1.55344E-6	-46.223296
1.553485E-6	-46.22876
1.55353E-6	-46.311555
1.553575E-6	-46.447401
1.55362E-6	-46.585655
1.553665E-6	-46.639407
1.55371E-6	-46.645421
1.553755E-6	-46.649435
1.5538E-6	-46.655462
1.553845E-6	-46.661499
1.55389E-6	-46.641411
1.553935E-6	-46.579723
1.55398E-6	-46.422557
1.554025E-6	-46.294869
1.55407E-6	-46.230582
1.554115E-6	-46.217839
1.55416E-6	-46.212388
1.554205E-6	-46.205132
1.55425E-6	-46.19427
1.554295E-6	-46.226937
1.55434E-6	-46.294869
1.554385E-6	-46.434006
1.55443E-6	-46.567884
1.554475E-6	-46.617428
1.55452E-6	-46.623411
1.554565E-6	-46.643415
1.55461E-6	-46.637404
1.554655E-6	-46.633402
1.5547E-6	-46.617428
1.554745E-6	-46.540385
1.55479E-6	-46.397854
1.554835E-6	-46.259853
1.55488E-6	-46.205132
1.554925E-6	-46.169031
1.55497E-6	-46.172627
1.555015E-6	-46.165437
1.55506E-6	-46.172627
1.555105E-6	-46.187044
1.55515E-6	-46.278247
1.555195E-6	-46.416844
1.55524E-6	-46.558043
1.555285E-6	-46.605486
1.55533E-6	-46.615435
1.555375E-6	-46.619421
1.55542E-6	-46.621416
1.555465E-6	-46.611453
1.55551E-6	-46.597542
1.555555E-6	-46.5267
1.5556E-6	-46.367642
1.555645E-6	-46.23423
1.55569E-6	-46.190655
1.555735E-6	-46.167233
1.55578E-6	-46.158259
1.555825E-6	-46.151092
1.55587E-6	-46.165437
1.555915E-6	-46.188849
1.55596E-6	-46.261689
1.556005E-6	-46.424463
1.55605E-6	-46.558043
1.556095E-6	-46.609463
1.55614E-6	-46.631402
1.556185E-6	-46.631402
1.55623E-6	-46.625407
1.556275E-6	-46.609463
1.55632E-6	-46.603498
1.556365E-6	-46.534514
1.55641E-6	-46.371407
1.556455E-6	-46.22876
1.5565E-6	-46.172627
1.556545E-6	-46.161846
1.55659E-6	-46.160052
1.556635E-6	-46.172627
1.55668E-6	-46.188849
1.556725E-6	-46.197888
1.55677E-6	-46.274562
1.556815E-6	-46.447401
1.55686E-6	-46.577748
1.556905E-6	-46.639407
1.55695E-6	-46.657474
1.556995E-6	-46.647427
1.55704E-6	-46.647427
1.557085E-6	-46.647427
1.55713E-6	-46.647427
1.557175E-6	-46.563945
1.55722E-6	-46.390281
1.557265E-6	-46.254349
1.55731E-6	-46.19427
1.557355E-6	-46.192462
1.5574E-6	-46.206945
1.557445E-6	-46.216021
1.55749E-6	-46.223296
1.557535E-6	-46.236056
1.55758E-6	-46.33017
1.557625E-6	-46.501399
1.55767E-6	-46.647427
1.557715E-6	-46.699923
1.55776E-6	-46.716204
1.557805E-6	-46.712128
1.55785E-6	-46.716204
1.557895E-6	-46.708056
1.55794E-6	-46.720284
1.557985E-6	-46.623411
1.55803E-6	-46.458916
1.558075E-6	-46.317131
1.55812E-6	-46.26904
1.558165E-6	-46.281935
1.55821E-6	-46.287474
1.558255E-6	-46.298572
1.5583E-6	-46.304131
1.558345E-6	-46.315272
1.55839E-6	-46.416844
1.558435E-6	-46.597542
1.55848E-6	-46.753061
1.558525E-6	-46.794383
1.55857E-6	-46.802695
1.558615E-6	-46.804776
1.55866E-6	-46.806857
1.558705E-6	-46.821455
1.55875E-6	-46.819367
1.558795E-6	-46.724367
1.55884E-6	-46.550186
1.558885E-6	-46.428277
1.55893E-6	-46.399749
1.558975E-6	-46.403542
1.55902E-6	-46.418747
1.559065E-6	-46.420652
1.55911E-6	-46.422557
1.559155E-6	-46.449318
1.5592E-6	-46.550186
1.559245E-6	-46.742791
1.55929E-6	-46.888822
1.559335E-6	-46.931463
1.55938E-6	-46.937895
1.559425E-6	-46.937895
1.55947E-6	-46.970201
1.559515E-6	-46.978856
1.55956E-6	-46.983191
1.559605E-6	-46.893067
1.55965E-6	-46.716204
1.559695E-6	-46.599527
1.55974E-6	-46.569855
1.559785E-6	-46.579723
1.55983E-6	-46.587634
1.559875E-6	-46.593576
1.55992E-6	-46.599527
1.559965E-6	-46.623411
1.56001E-6	-46.744843
1.560055E-6	-46.942188
1.5601E-6	-47.068585
1.560145E-6	-47.117508
1.56019E-6	-47.117508
1.560235E-6	-47.13319
1.56028E-6	-47.160207
1.560325E-6	-47.180581
1.56037E-6	-47.162466
1.560415E-6	-47.079656
1.56046E-6	-46.922901
1.560505E-6	-46.811023
1.56055E-6	-46.781945
1.560595E-6	-46.792308
1.56064E-6	-46.78816
1.560685E-6	-46.800616
1.56073E-6	-46.802695
1.560775E-6	-46.844495
1.56082E-6	-46.959405
1.560865E-6	-47.13319
1.56091E-6	-47.276942
1.560955E-6	-47.311881
1.561E-6	-47.335331
1.561045E-6	-47.356545
1.56109E-6	-47.375489
1.561135E-6	-47.392133
1.56118E-6	-47.370745
1.561225E-6	-47.300203
1.56127E-6	-47.157949
1.561315E-6	-47.046529
1.56136E-6	-47.031155
1.561405E-6	-47.033348
1.56145E-6	-47.035542
1.561495E-6	-47.048729
1.56154E-6	-47.055338
1.561585E-6	-47.095202
1.56163E-6	-47.198771
1.561675E-6	-47.356545
1.56172E-6	-47.50557
1.561765E-6	-47.552282
1.56181E-6	-47.579558
1.561855E-6	-47.609509
1.5619E-6	-47.619539
1.561945E-6	-47.62205
1.56199E-6	-47.619539
1.562035E-6	-47.562181
1.56208E-6	-47.449688
1.562125E-6	-47.32359
1.56217E-6	-47.286231
1.562215E-6	-47.293212
1.56226E-6	-47.288557
1.562305E-6	-47.318903
1.56235E-6	-47.325936
1.562395E-6	-47.351822
1.56244E-6	-47.442452
1.562485E-6	-47.589518
1.56253E-6	-47.74174
1.562575E-6	-47.806775
1.56262E-6	-47.838341
1.562665E-6	-47.870138
1.56271E-6	-47.878124
1.562755E-6	-47.896815
1.5628E-6	-47.886124
1.562845E-6	-47.848914
1.56289E-6	-47.721133
1.562935E-6	-47.619539
1.56298E-6	-47.56962
1.563025E-6	-47.572102
1.56307E-6	-47.577071
1.563115E-6	-47.604503
1.56316E-6	-47.619539
1.563205E-6	-47.647241
1.56325E-6	-47.715996
1.563295E-6	-47.85421
1.56334E-6	-48.013429
1.563385E-6	-48.082696
1.56343E-6	-48.127614
1.563475E-6	-48.141746
