Wavelength (nm)	Power (dBm)
1.525E-6	-72.49029
1.525045E-6	-72.494916
1.52509E-6	-73.116692
1.525135E-6	-74.825402
1.52518E-6	-78.735439
1.525225E-6	-81.310031
1.52527E-6	-83.711004
1.525315E-6	-84.067139
1.52536E-6	-83.440936
1.525405E-6	-83.860525
1.52545E-6	-82.952491
1.525495E-6	-78.317973
1.52554E-6	-73.862639
1.525585E-6	-72.049546
1.52563E-6	-71.471542
1.525675E-6	-71.216506
1.52572E-6	-71.114274
1.525765E-6	-70.817599
1.52581E-6	-70.724757
1.525855E-6	-70.989778
1.5259E-6	-72.484899
1.525945E-6	-76.515004
1.52599E-6	-79.673812
1.526035E-6	-83.119363
1.52608E-6	-84.209027
1.526125E-6	-83.565473
1.52617E-6	-84.433357
1.526215E-6	-82.331412
1.52626E-6	-78.551146
1.526305E-6	-73.21846
1.52635E-6	-70.82337
1.526395E-6	-70.037949
1.52644E-6	-69.767475
1.526485E-6	-69.681877
1.52653E-6	-69.511699
1.526575E-6	-69.605859
1.52662E-6	-69.653715
1.526665E-6	-70.831777
1.52671E-6	-73.677452
1.526755E-6	-78.520147
1.5268E-6	-81.321791
1.526845E-6	-84.560561
1.52689E-6	-82.664015
1.526935E-6	-82.364223
1.52698E-6	-83.372422
1.527025E-6	-79.208188
1.52707E-6	-72.697023
1.527115E-6	-69.97402
1.52716E-6	-68.837244
1.527205E-6	-68.588639
1.52725E-6	-68.507809
1.527295E-6	-68.410347
1.52734E-6	-68.320922
1.527385E-6	-68.416375
1.52743E-6	-69.147094
1.527475E-6	-71.538485
1.52752E-6	-76.621416
1.527565E-6	-80.042771
1.52761E-6	-82.894596
1.527655E-6	-82.601113
1.5277E-6	-83.614109
1.527745E-6	-83.716111
1.52779E-6	-80.841255
1.527835E-6	-73.086532
1.52788E-6	-69.578184
1.527925E-6	-67.90217
1.52797E-6	-67.567139
1.528015E-6	-67.437635
1.52806E-6	-67.432823
1.528105E-6	-67.437635
1.52815E-6	-67.500682
1.528195E-6	-67.947956
1.52824E-6	-69.730584
1.528285E-6	-73.776823
1.52833E-6	-79.825493
1.528375E-6	-82.668027
1.52842E-6	-82.039116
1.528465E-6	-81.78552
1.52851E-6	-79.846402
1.528555E-6	-71.574532
1.5286E-6	-55.169836
1.528645E-6	-47.070797
1.52869E-6	-43.262421
1.528735E-6	-42.316579
1.52878E-6	-42.06489
1.528825E-6	-41.961334
1.52887E-6	-41.8303
1.528915E-6	-41.953155
1.52896E-6	-43.389449
1.529005E-6	-47.425614
1.52905E-6	-55.639965
1.529095E-6	-64.280584
1.52914E-6	-72.197547
1.529185E-6	-78.239087
1.52923E-6	-79.969705
1.529275E-6	-79.562449
1.52932E-6	-74.810914
1.529365E-6	-59.943906
1.52941E-6	-48.887375
1.529455E-6	-43.982659
1.5295E-6	-42.442013
1.529545E-6	-42.043285
1.52959E-6	-41.954517
1.529635E-6	-41.852199
1.52968E-6	-41.844223
1.529725E-6	-42.647206
1.52977E-6	-45.54863
1.529815E-6	-51.703746
1.52986E-6	-60.748943
1.529905E-6	-69.550685
1.52995E-6	-76.635403
1.529995E-6	-79.041335
1.53004E-6	-80.076232
1.530085E-6	-76.720284
1.53013E-6	-65.086383
1.530175E-6	-51.333583
1.53022E-6	-44.861168
1.530265E-6	-42.718086
1.53031E-6	-42.143855
1.530355E-6	-42.006595
1.5304E-6	-41.892971
1.530445E-6	-41.861522
1.53049E-6	-42.229358
1.530535E-6	-44.272445
1.53058E-6	-49.041335
1.530625E-6	-59.255493
1.53067E-6	-67.602002
1.530715E-6	-74.298074
1.53076E-6	-79.854795
1.530805E-6	-80.10061
1.53085E-6	-78.972234
1.530895E-6	-71.327683
1.53094E-6	-54.640733
1.530985E-6	-46.813107
1.53103E-6	-43.1078
1.531075E-6	-42.225007
1.53112E-6	-42.056514
1.531165E-6	-41.974315
1.53121E-6	-41.936165
1.531255E-6	-42.100669
1.5313E-6	-43.373366
1.531345E-6	-46.961562
1.53139E-6	-54.800408
1.531435E-6	-63.938337
1.53148E-6	-71.82633
1.531525E-6	-78.124793
1.53157E-6	-79.681877
1.531615E-6	-79.710223
1.53166E-6	-74.544455
1.531705E-6	-60.180908
1.53175E-6	-48.910969
1.531795E-6	-43.82266
1.53184E-6	-42.26433
1.531885E-6	-41.964746
1.53193E-6	-41.893643
1.531975E-6	-41.88358
1.53202E-6	-41.93142
1.532065E-6	-42.688143
1.53211E-6	-45.425723
1.532155E-6	-51.455118
1.5322E-6	-62.66883
1.532245E-6	-69.863203
1.53229E-6	-76.003263
1.532335E-6	-79.562449
1.53238E-6	-80.518806
1.532425E-6	-77.009287
1.53247E-6	-66.74895
1.532515E-6	-51.831624
1.53256E-6	-44.88384
1.532605E-6	-42.567255
1.53265E-6	-41.999706
1.532695E-6	-41.935487
1.53274E-6	-41.965429
1.532785E-6	-41.957242
1.53283E-6	-42.310661
1.532875E-6	-44.04614
1.53292E-6	-48.579235
1.532965E-6	-57.408842
1.53301E-6	-66.226937
1.533055E-6	-73.447655
1.5331E-6	-78.751699
1.533145E-6	-80.152477
1.53319E-6	-79.427144
1.533235E-6	-73.053071
1.53328E-6	-56.74895
1.533325E-6	-47.726276
1.53337E-6	-43.288272
1.533415E-6	-42.136746
1.53346E-6	-41.949071
1.533505E-6	-42.027325
1.53355E-6	-42.063493
1.533595E-6	-42.218487
1.53364E-6	-43.128279
1.533685E-6	-46.256183
1.53373E-6	-52.768728
1.533775E-6	-61.750935
1.53382E-6	-70.396244
1.533865E-6	-76.933606
1.53391E-6	-79.763361
1.533955E-6	-80.070049
1.534E-6	-76.775739
1.534045E-6	-64.820128
1.53409E-6	-50.928575
1.534135E-6	-44.42132
1.53418E-6	-42.367967
1.534225E-6	-41.944991
1.53427E-6	-41.962698
1.534315E-6	-42.023171
1.53436E-6	-42.100669
1.534405E-6	-42.680086
1.53445E-6	-44.92279
1.534495E-6	-49.842212
1.53454E-6	-59.93962
1.534585E-6	-68.027194
1.53463E-6	-75.176982
1.534675E-6	-79.299621
1.53472E-6	-80.381994
1.534765E-6	-79.143527
1.53481E-6	-72.109131
1.534855E-6	-55.370034
1.5349E-6	-46.836102
1.534945E-6	-42.866775
1.53499E-6	-41.915864
1.535035E-6	-41.827653
1.53508E-6	-41.915189
1.535125E-6	-41.970211
1.53517E-6	-42.265061
1.535215E-6	-43.54676
1.53526E-6	-47.119745
1.535305E-6	-54.483061
1.53535E-6	-63.420841
1.535395E-6	-71.603963
1.53544E-6	-78.175853
1.535485E-6	-79.838026
1.53553E-6	-80.570995
1.535575E-6	-76.254349
1.53562E-6	-63.417977
1.535665E-6	-50.256265
1.53571E-6	-44.20445
1.535755E-6	-42.260674
1.5358E-6	-41.878892
1.535845E-6	-41.885591
1.53589E-6	-41.989395
1.535935E-6	-42.109837
1.53598E-6	-42.712405
1.536025E-6	-45.03901
1.53607E-6	-49.982663
1.536115E-6	-60.706833
1.53616E-6	-68.664611
1.536205E-6	-75.334289
1.53625E-6	-79.172146
1.536295E-6	-80.883098
1.53634E-6	-79.136402
1.536385E-6	-72.48413
1.53643E-6	-55.88212
1.536475E-6	-47.110804
1.53652E-6	-43.041682
1.536565E-6	-42.078886
1.53661E-6	-41.953836
1.536655E-6	-41.989395
1.5367E-6	-42.082392
1.536745E-6	-42.322506
1.53679E-6	-43.478504
1.536835E-6	-47.166988
1.53688E-6	-54.787311
1.536925E-6	-63.805936
1.53697E-6	-71.619699
1.537015E-6	-78.093882
1.53706E-6	-80.68593
1.537105E-6	-79.897
1.53715E-6	-76.322715
1.537195E-6	-63.873221
1.53724E-6	-50.489541
1.537285E-6	-44.329736
1.53733E-6	-42.31732
1.537375E-6	-41.898347
1.53742E-6	-41.870866
1.537465E-6	-41.911141
1.53751E-6	-41.956561
1.537555E-6	-42.467234
1.5376E-6	-44.776862
1.537645E-6	-49.804683
1.53769E-6	-60.383417
1.537735E-6	-68.483238
1.53778E-6	-74.812229
1.537825E-6	-79.792245
1.53787E-6	-80.942041
1.537915E-6	-79.738755
1.53796E-6	-73.420841
1.538005E-6	-56.897316
1.53805E-6	-47.532553
1.538095E-6	-43.193926
1.53814E-6	-42.050243
1.538185E-6	-41.885591
1.53823E-6	-41.866859
1.538275E-6	-41.88224
1.53832E-6	-41.988022
1.538365E-6	-43.058337
1.53841E-6	-46.595559
1.538455E-6	-53.889143
1.5385E-6	-63.140792
1.538545E-6	-71.386448
1.53859E-6	-77.370745
1.538635E-6	-80.231
1.53868E-6	-80.828622
1.538725E-6	-76.689778
1.53877E-6	-65.349147
1.538815E-6	-51.605848
1.53886E-6	-44.90932
1.538905E-6	-42.659206
1.53895E-6	-42.159536
1.538995E-6	-42.055817
1.53904E-6	-42.016256
1.539085E-6	-42.030096
1.53913E-6	-42.364971
1.539175E-6	-44.40213
1.53922E-6	-49.017025
1.539265E-6	-59.28118
1.53931E-6	-67.71343
1.539355E-6	-74.513649
1.5394E-6	-78.887375
1.539445E-6	-80.94312
1.53949E-6	-79.578184
1.539535E-6	-73.652205
1.53958E-6	-58.224635
1.539625E-6	-48.043771
1.53967E-6	-43.564486
1.539715E-6	-42.29148
1.53976E-6	-42.04398
1.539805E-6	-41.959288
1.53985E-6	-41.92871
1.539895E-6	-41.972263
1.53994E-6	-42.879399
1.539985E-6	-46.11366
1.54003E-6	-52.89798
1.540075E-6	-62.139588
1.54012E-6	-70.559617
1.540165E-6	-76.983191
1.54021E-6	-79.880069
1.540255E-6	-80.430636
1.5403E-6	-78.262312
1.540345E-6	-68.857227
1.54039E-6	-52.534436
1.540435E-6	-45.304725
1.54048E-6	-42.704303
1.540525E-6	-42.030789
1.54057E-6	-41.878892
1.540615E-6	-41.815761
1.54066E-6	-41.772437
1.540705E-6	-42.037727
1.54075E-6	-43.773716
1.540795E-6	-48.320922
1.54084E-6	-57.274622
1.540885E-6	-65.926091
1.54093E-6	-73.496925
1.540975E-6	-78.623295
1.54102E-6	-80.702746
1.541065E-6	-80.535969
1.54111E-6	-75.344684
1.541155E-6	-60.960965
1.5412E-6	-49.086848
1.541245E-6	-44.030732
1.54129E-6	-42.477978
1.541335E-6	-42.109131
1.54138E-6	-42.015565
1.541425E-6	-41.986649
1.54147E-6	-42.008663
1.541515E-6	-42.648005
1.54156E-6	-45.36555
1.541605E-6	-50.972902
1.54165E-6	-62.008663
1.541695E-6	-68.800846
1.54174E-6	-76.051982
1.541785E-6	-79.359166
1.54183E-6	-81.008911
1.541875E-6	-79.108016
1.54192E-6	-71.104742
1.541965E-6	-54.511194
1.54201E-6	-46.703988
1.542055E-6	-43.026835
1.5421E-6	-42.158108
1.542145E-6	-42.001083
1.54219E-6	-41.92871
1.542235E-6	-41.876884
1.54228E-6	-42.009353
1.542325E-6	-43.19302
1.54237E-6	-46.806857
1.542415E-6	-54.31329
1.54246E-6	-62.988639
1.542505E-6	-71.161115
1.54255E-6	-77.258422
1.542595E-6	-79.314431
1.54264E-6	-80.668672
1.542685E-6	-76.74895
1.54273E-6	-64.739193
1.542775E-6	-51.149782
1.54282E-6	-44.830682
1.542865E-6	-42.664817
1.54291E-6	-42.148838
1.542955E-6	-42.065589
1.543E-6	-42.034257
1.543045E-6	-41.977053
1.54309E-6	-42.314359
1.543135E-6	-44.173686
1.54318E-6	-49.086848
1.543225E-6	-58.607508
1.54327E-6	-67.281584
1.543315E-6	-74.053865
1.54336E-6	-79.314431
1.543405E-6	-80.900163
1.54345E-6	-79.763361
1.543495E-6	-74.125135
1.54354E-6	-59.150664
1.543585E-6	-48.368386
1.54363E-6	-43.629107
1.543675E-6	-42.267989
1.54372E-6	-41.996266
1.543765E-6	-41.906423
1.54381E-6	-41.909793
1.543855E-6	-41.953155
1.5439E-6	-42.731099
1.543945E-6	-45.597208
1.54399E-6	-51.838913
1.544035E-6	-60.46192
1.54408E-6	-69.248181
1.544125E-6	-76.836102
1.54417E-6	-79.366666
1.544215E-6	-80.495865
1.54426E-6	-78.992849
1.544305E-6	-70.467237
1.54435E-6	-54.029633
1.544395E-6	-46.509168
1.54444E-6	-43.0103
1.544485E-6	-42.219211
1.54453E-6	-42.057909
1.544575E-6	-42.060002
1.54462E-6	-41.988022
1.544665E-6	-42.166682
1.54471E-6	-43.409399
1.544755E-6	-47.198771
1.5448E-6	-55.221555
1.544845E-6	-64.078232
1.54489E-6	-72.024555
1.544935E-6	-78.365404
1.54498E-6	-80.145735
1.545025E-6	-80.970729
1.54507E-6	-76.617428
1.545115E-6	-64.067139
1.54516E-6	-50.834934
1.545205E-6	-44.517335
1.54525E-6	-42.432118
1.545295E-6	-41.901038
1.54534E-6	-41.842231
1.545385E-6	-41.842231
1.54543E-6	-41.849538
1.545475E-6	-42.173841
1.54552E-6	-44.05718
1.545565E-6	-48.910969
1.54561E-6	-57.87546
1.545655E-6	-66.629403
1.5457E-6	-73.818473
1.545745E-6	-79.175737
1.54579E-6	-80.652996
1.545835E-6	-79.519468
1.54588E-6	-74.595454
1.545925E-6	-59.582127
1.54597E-6	-48.529423
1.546015E-6	-43.610118
1.54606E-6	-42.287066
1.546105E-6	-42.007973
1.54615E-6	-41.964746
1.546195E-6	-41.948391
1.54624E-6	-41.981848
1.546285E-6	-42.581396
1.54633E-6	-45.121549
1.546375E-6	-50.859214
1.54642E-6	-61.923973
1.546465E-6	-69.746941
1.54651E-6	-75.705707
1.546555E-6	-78.972234
1.5466E-6	-81.118767
1.546645E-6	-79.240882
1.54669E-6	-72.020404
1.546735E-6	-55.612995
1.54678E-6	-47.21475
1.546825E-6	-43.235808
1.54687E-6	-42.219211
1.546915E-6	-42.032176
1.54696E-6	-41.986649
1.547005E-6	-41.969528
1.54705E-6	-42.108425
1.547095E-6	-43.228495
1.54714E-6	-46.703988
1.547185E-6	-53.741733
1.54723E-6	-62.664015
1.547275E-6	-70.933418
1.54732E-6	-77.142177
1.547365E-6	-79.722428
1.54741E-6	-79.808837
1.547455E-6	-77.920965
1.5475E-6	-66.422557
1.547545E-6	-52.02871
1.54759E-6	-45.05011
1.547635E-6	-42.676062
1.54768E-6	-42.107719
1.547725E-6	-42.004527
1.54777E-6	-41.981848
1.547815E-6	-41.982534
1.54786E-6	-42.185319
1.547905E-6	-43.603143
1.54795E-6	-47.723704
1.547995E-6	-56.092415
1.54804E-6	-64.974363
1.548085E-6	-72.353756
1.54813E-6	-77.942545
1.548175E-6	-80.287706
1.54822E-6	-80.40291
1.548265E-6	-75.91082
1.54831E-6	-61.831624
1.548355E-6	-49.771594
1.5484E-6	-44.23083
1.548445E-6	-42.411638
1.54849E-6	-42.041895
1.548535E-6	-41.978422
1.54858E-6	-41.9382
1.548625E-6	-41.971579
1.54867E-6	-42.370965
1.548715E-6	-44.438182
1.54876E-6	-49.215432
1.548805E-6	-59.359166
1.54885E-6	-67.500682
1.548895E-6	-74.49527
1.54894E-6	-78.972234
1.548985E-6	-80.595831
1.54903E-6	-79.645703
1.549075E-6	-74.071573
1.54912E-6	-58.968807
1.549165E-6	-48.45576
1.54921E-6	-43.624102
1.549255E-6	-42.20115
1.5493E-6	-41.910467
1.549345E-6	-41.856858
1.54939E-6	-41.834273
1.549435E-6	-41.88358
1.54948E-6	-42.507276
1.549525E-6	-44.955291
1.54957E-6	-50.316105
1.549615E-6	-60.878843
1.54966E-6	-68.658229
1.549705E-6	-75.32836
1.54975E-6	-79.617774
1.549795E-6	-81.149782
1.54984E-6	-79.010104
1.549885E-6	-72.248995
1.54993E-6	-56.010189
1.549975E-6	-47.233085
1.55002E-6	-43.205721
1.550065E-6	-42.178859
1.55011E-6	-41.980478
1.550155E-6	-41.935487
1.5502E-6	-41.942953
1.550245E-6	-41.990768
1.55029E-6	-42.73762
1.550335E-6	-45.603516
1.55038E-6	-51.755487
1.550425E-6	-60.606805
1.55047E-6	-69.370422
1.550515E-6	-76.27088
1.55056E-6	-79.200955
1.550605E-6	-81.170772
1.55065E-6	-78.576105
1.550695E-6	-69.97402
1.55074E-6	-53.732491
1.550785E-6	-46.278247
1.55083E-6	-42.914092
1.550875E-6	-42.103488
1.55092E-6	-41.923973
1.550965E-6	-41.923973
1.55101E-6	-41.932097
1.551055E-6	-42.010043
1.5511E-6	-43.128279
1.551145E-6	-46.667543
1.55119E-6	-53.898724
1.551235E-6	-62.943928
1.55128E-6	-71.047985
1.551325E-6	-77.456937
1.55137E-6	-80.068725
1.551415E-6	-81.085183
1.55146E-6	-79.069287
1.551505E-6	-66.611453
1.55155E-6	-51.983905
1.551595E-6	-45.059846
1.55164E-6	-42.705922
1.551685E-6	-42.107014
1.55173E-6	-41.978422
1.551775E-6	-41.986649
1.55182E-6	-41.967478
1.551865E-6	-42.127521
1.55191E-6	-43.590219
1.551955E-6	-47.614521
1.552E-6	-55.893915
1.552045E-6	-64.587953
1.55209E-6	-72.289272
1.552135E-6	-78.709549
1.55218E-6	-80.228253
1.552225E-6	-80.011742
1.55227E-6	-76.869769
1.552315E-6	-64.579219
1.55236E-6	-51.130583
1.552405E-6	-44.626847
1.55245E-6	-42.549252
1.552495E-6	-42.03981
1.55254E-6	-41.984591
1.552585E-6	-41.953155
1.55263E-6	-41.894987
1.552675E-6	-42.1846
1.55272E-6	-43.895528
1.552765E-6	-48.477117
1.55281E-6	-57.110804
1.552855E-6	-65.798792
1.5529E-6	-73.171332
1.552945E-6	-78.554258
1.55299E-6	-80.312836
1.553035E-6	-79.922522
1.55308E-6	-75.201369
1.553125E-6	-61.277854
1.55317E-6	-49.381707
1.553215E-6	-44.080454
1.55326E-6	-42.393514
1.553305E-6	-42.014875
1.55335E-6	-41.953155
1.553395E-6	-41.899692
1.55344E-6	-41.914514
1.553485E-6	-42.338103
1.55353E-6	-44.352156
1.553575E-6	-49.299621
1.55362E-6	-58.658229
1.553665E-6	-66.811023
1.55371E-6	-73.972891
1.553755E-6	-78.768019
1.5538E-6	-80.161483
1.553845E-6	-78.130437
1.55389E-6	-74.434563
1.553935E-6	-59.625735
1.55398E-6	-48.661419
1.554025E-6	-43.841551
1.55407E-6	-42.359734
1.554115E-6	-42.038421
1.55416E-6	-42.005905
1.554205E-6	-41.92465
1.55425E-6	-41.939558
1.554295E-6	-42.44049
1.55434E-6	-44.666093
1.554385E-6	-49.661743
1.55443E-6	-59.969705
1.554475E-6	-68.096683
1.55452E-6	-74.997635
1.554565E-6	-79.385475
1.55461E-6	-80.621813
1.554655E-6	-79.480761
1.5547E-6	-73.346066
1.554745E-6	-58.395315
1.55479E-6	-47.93714
1.554835E-6	-43.573377
1.55488E-6	-42.323248
1.554925E-6	-42.074682
1.55497E-6	-42.025247
1.555015E-6	-41.953155
1.55506E-6	-42.021787
1.555105E-6	-42.528991
1.55515E-6	-44.854522
1.555195E-6	-50.335297
1.55524E-6	-61.060719
1.555285E-6	-68.817353
1.55533E-6	-75.568935
1.555375E-6	-78.693447
1.55542E-6	-80.875654
1.555465E-6	-79.172146
1.55551E-6	-72.347041
1.555555E-6	-56.07303
1.5556E-6	-47.469044
1.555645E-6	-43.342314
1.55569E-6	-42.294425
1.555735E-6	-42.040505
1.55578E-6	-41.963381
1.555825E-6	-41.964063
1.55587E-6	-41.979792
1.555915E-6	-42.488749
1.55596E-6	-45.016894
1.556005E-6	-50.714505
1.55605E-6	-61.511953
1.556095E-6	-69.041335
1.55614E-6	-75.413622
1.556185E-6	-78.751699
1.55623E-6	-80.8019
1.556275E-6	-78.616973
1.55632E-6	-71.595175
1.556365E-6	-55.294425
1.55641E-6	-47.121983
1.556455E-6	-43.187588
1.5565E-6	-42.157394
1.556545E-6	-41.938879
1.55659E-6	-41.947711
1.556635E-6	-41.927356
1.55668E-6	-41.944991
1.556725E-6	-42.696215
1.55677E-6	-45.318004
1.556815E-6	-51.343039
1.55686E-6	-62.092224
1.556905E-6	-68.884015
1.55695E-6	-75.764265
1.556995E-6	-79.641702
1.55704E-6	-80.340931
1.557085E-6	-79.136402
1.55713E-6	-71.947711
1.557175E-6	-55.310622
1.55722E-6	-47.024583
1.557265E-6	-43.138108
1.55731E-6	-42.155967
1.557355E-6	-41.947031
1.5574E-6	-41.903056
1.557445E-6	-41.894987
1.55749E-6	-41.968161
1.557535E-6	-42.701875
1.55758E-6	-45.592483
1.557625E-6	-51.667254
1.55767E-6	-60.561594
1.557715E-6	-69.318141
1.55776E-6	-76.538427
1.557805E-6	-79.54677
1.55785E-6	-80.791986
1.557895E-6	-78.585502
1.55794E-6	-71.350738
1.557985E-6	-54.765137
1.55803E-6	-46.7305
1.558075E-6	-43.015515
1.55812E-6	-42.048154
1.558165E-6	-41.821042
1.55821E-6	-41.84024
1.558255E-6	-41.842231
1.5583E-6	-41.904403
1.558345E-6	-42.629665
1.55839E-6	-45.459177
1.558435E-6	-51.406215
1.55848E-6	-62.251912
1.558525E-6	-68.840568
1.55857E-6	-75.982549
1.558615E-6	-79.566377
1.55866E-6	-80.908185
1.558705E-6	-78.958544
1.55875E-6	-71.261565
1.558795E-6	-55.244741
1.55884E-6	-46.974526
1.558885E-6	-43.043432
1.55893E-6	-42.037727
1.558975E-6	-41.888273
1.55902E-6	-41.868862
1.559065E-6	-41.895658
1.55911E-6	-41.996954
1.559155E-6	-42.747419
1.5592E-6	-45.559552
1.559245E-6	-51.564558
1.55929E-6	-62.335128
1.559335E-6	-69.118639
1.55938E-6	-76.409238
1.559425E-6	-79.381707
1.55947E-6	-80.928037
1.559515E-6	-79.051796
1.55956E-6	-71.752235
1.559605E-6	-55.55799
1.55965E-6	-47.113037
1.559695E-6	-43.083881
1.55974E-6	-42.083795
1.559785E-6	-41.892971
1.55983E-6	-41.930742
1.559875E-6	-41.986649
1.55992E-6	-42.077484
1.559965E-6	-42.846653
1.56001E-6	-45.726762
1.560055E-6	-51.994891
1.5601E-6	-60.678308
1.560145E-6	-69.469216
1.56019E-6	-76.409238
1.560235E-6	-79.738755
1.56028E-6	-80.514403
1.560325E-6	-78.877302
1.56037E-6	-71.680663
1.560415E-6	-55.250557
1.56046E-6	-46.765416
1.560505E-6	-42.865935
1.56055E-6	-41.911141
1.560595E-6	-41.788141
1.56064E-6	-41.805877
1.560685E-6	-41.85486
1.56073E-6	-41.957924
1.560775E-6	-42.653602
1.56082E-6	-45.433304
1.560865E-6	-51.386448
1.56091E-6	-62.429838
1.560955E-6	-69.143527
1.561E-6	-76.022337
1.561045E-6	-79.329291
1.56109E-6	-80.958256
1.561135E-6	-79.492337
1.56118E-6	-72.601904
1.561225E-6	-56.267201
1.56127E-6	-47.335331
1.561315E-6	-43.123819
1.56136E-6	-42.060002
1.561405E-6	-41.897675
1.56145E-6	-41.92871
1.561495E-6	-41.972947
1.56154E-6	-42.060002
1.561585E-6	-42.706732
1.56163E-6	-45.331324
1.561675E-6	-51.169635
1.56172E-6	-61.947711
1.561765E-6	-69.574245
1.56181E-6	-76.058987
1.561855E-6	-79.132843
1.5619E-6	-80.76031
1.561945E-6	-79.905491
1.56199E-6	-73.768541
1.562035E-6	-58.648673
1.56208E-6	-47.92635
1.562125E-6	-43.338566
1.56217E-6	-42.086603
1.562215E-6	-41.899692
1.56226E-6	-41.953836
1.562305E-6	-41.988708
1.56235E-6	-42.114781
1.562395E-6	-42.628869
1.56244E-6	-44.958011
1.562485E-6	-50.118425
1.56253E-6	-60.618807
1.562575E-6	-68.407337
1.56262E-6	-75.047333
1.562665E-6	-79.427144
1.56271E-6	-80.194513
1.562755E-6	-79.578184
1.5628E-6	-74.530874
1.562845E-6	-60.2365
1.56289E-6	-48.347557
1.562935E-6	-43.362049
1.56298E-6	-41.936843
1.563025E-6	-41.717914
1.56307E-6	-41.742494
1.563115E-6	-41.820382
1.56316E-6	-41.932775
1.563205E-6	-42.403322
1.56325E-6	-44.46967
1.563295E-6	-49.362914
1.56334E-6	-59.393022
1.563385E-6	-67.649768
1.56343E-6	-74.30392
1.563475E-6	-78.771291
