Wavelength (nm)	Power (dBm)
1.525E-6	-49.796387
1.525045E-6	-49.702105
1.52509E-6	-49.808837
1.525135E-6	-50.231917
1.52518E-6	-50.668165
1.525225E-6	-50.799289
1.52527E-6	-50.752556
1.525315E-6	-50.680339
1.52536E-6	-50.603809
1.525405E-6	-50.513426
1.52545E-6	-50.291884
1.525495E-6	-49.617774
1.52554E-6	-48.706324
1.525585E-6	-48.107905
1.52563E-6	-47.840982
1.525675E-6	-47.664962
1.52572E-6	-47.483618
1.525765E-6	-47.31422
1.52581E-6	-47.178312
1.525855E-6	-47.316561
1.5259E-6	-48.005191
1.525945E-6	-48.955129
1.52599E-6	-49.446217
1.526035E-6	-49.496202
1.52608E-6	-49.457701
1.526125E-6	-49.385475
1.52617E-6	-49.318141
1.526215E-6	-49.118639
1.52626E-6	-48.253588
1.526305E-6	-46.952941
1.52635E-6	-45.922693
1.526395E-6	-45.581478
1.52644E-6	-45.407583
1.526485E-6	-45.279753
1.52653E-6	-45.164127
1.526575E-6	-45.0515
1.52662E-6	-45.179844
1.526665E-6	-46.051982
1.52671E-6	-47.416022
1.526755E-6	-48.323873
1.5268E-6	-48.489367
1.526845E-6	-48.483238
1.52689E-6	-48.428456
1.526935E-6	-48.37137
1.52698E-6	-48.198741
1.527025E-6	-47.113037
1.52707E-6	-45.325399
1.527115E-6	-44.06271
1.52716E-6	-43.565473
1.527205E-6	-43.423706
1.52725E-6	-43.326405
1.527295E-6	-43.204813
1.52734E-6	-43.1078
1.527385E-6	-43.223018
1.52743E-6	-44.031831
1.527475E-6	-45.712175
1.52752E-6	-47.286231
1.527565E-6	-47.78325
1.52761E-6	-47.843624
1.527655E-6	-47.809397
1.5277E-6	-47.775437
1.527745E-6	-47.68021
1.52779E-6	-46.757175
1.527835E-6	-44.591702
1.52788E-6	-42.896287
1.527925E-6	-42.210533
1.52797E-6	-42.005216
1.528015E-6	-41.949071
1.52806E-6	-41.88492
1.528105E-6	-41.850868
1.52815E-6	-41.894987
1.528195E-6	-42.507276
1.52824E-6	-44.174821
1.528285E-6	-46.326441
1.52833E-6	-47.337683
1.528375E-6	-47.4958
1.52842E-6	-47.476325
1.528465E-6	-47.321246
1.52851E-6	-46.552149
1.528555E-6	-41.383461
1.5286E-6	-29.058784
1.528645E-6	-21.819061
1.52869E-6	-18.85389
1.528735E-6	-17.915586
1.52878E-6	-17.6675
1.528825E-6	-17.542406
1.52887E-6	-17.459355
1.528915E-6	-17.607005
1.52896E-6	-19.161392
1.529005E-6	-23.39514
1.52905E-6	-32.404077
1.529095E-6	-41.317671
1.52914E-6	-45.846927
1.529185E-6	-47.007107
1.52923E-6	-47.210179
1.529275E-6	-46.933606
1.52932E-6	-45.011383
1.529365E-6	-32.9073
1.52941E-6	-23.567448
1.529455E-6	-19.685915
1.5295E-6	-18.198741
1.529545E-6	-17.846268
1.52959E-6	-17.744323
1.529635E-6	-17.687854
1.52968E-6	-17.715996
1.529725E-6	-18.664611
1.52977E-6	-21.767214
1.529815E-6	-28.944898
1.52986E-6	-39.385475
1.529905E-6	-45.000381
1.52995E-6	-46.821455
1.529995E-6	-47.191941
1.53004E-6	-47.088532
1.530085E-6	-46.169031
1.53013E-6	-38.498578
1.530175E-6	-25.802094
1.53022E-6	-20.849169
1.530265E-6	-18.751699
1.53031E-6	-18.23041
1.530355E-6	-18.10229
1.5304E-6	-18.035475
1.530445E-6	-18.016179
1.53049E-6	-18.422411
1.530535E-6	-20.540393
1.53058E-6	-25.785606
1.530625E-6	-35.633604
1.53067E-6	-43.446694
1.530715E-6	-46.455074
1.53076E-6	-47.14893
1.530805E-6	-47.20105
1.53085E-6	-46.675615
1.530895E-6	-42.734358
1.53094E-6	-29.211808
1.530985E-6	-22.236621
1.53103E-6	-19.37418
1.531075E-6	-18.544928
1.53112E-6	-18.362425
1.531165E-6	-18.297383
1.53121E-6	-18.288588
1.531255E-6	-18.461851
1.5313E-6	-19.897
1.531345E-6	-23.815335
1.53139E-6	-32.175274
1.531435E-6	-41.551502
1.53148E-6	-45.939711
1.531525E-6	-47.066374
1.53157E-6	-47.272304
1.531615E-6	-47.035542
1.53166E-6	-45.40306
1.531705E-6	-33.703866
1.53175E-6	-24.2159
1.531795E-6	-20.198602
1.53184E-6	-18.687022
1.531885E-6	-18.374356
1.53193E-6	-18.315025
1.531975E-6	-18.320922
1.53202E-6	-18.392314
1.532065E-6	-19.122186
1.53211E-6	-21.803903
1.532155E-6	-28.239087
1.5322E-6	-38.693447
1.532245E-6	-44.76774
1.53229E-6	-46.836102
1.532335E-6	-47.290884
1.53238E-6	-47.251497
1.532425E-6	-46.439741
1.53247E-6	-40.002172
1.532515E-6	-26.691805
1.53256E-6	-21.281936
1.532605E-6	-19.097419
1.53265E-6	-18.548036
1.532695E-6	-18.480176
1.53274E-6	-18.480176
1.532785E-6	-18.535619
1.53283E-6	-18.941493
1.532875E-6	-20.853924
1.53292E-6	-25.635193
1.532965E-6	-34.799097
1.53301E-6	-43.180355
1.533055E-6	-46.567884
1.5331E-6	-47.366007
1.533145E-6	-47.454519
1.53319E-6	-47.10634
1.533235E-6	-44.748256
1.53328E-6	-31.825669
1.533325E-6	-23.273481
1.53337E-6	-19.710223
1.533415E-6	-18.520147
1.53346E-6	-18.359447
1.533505E-6	-18.374356
1.53355E-6	-18.443604
1.533595E-6	-18.645493
1.53364E-6	-19.649707
1.533685E-6	-22.974833
1.53373E-6	-30.086853
1.533775E-6	-39.956786
1.53382E-6	-45.655908
1.533865E-6	-47.304871
1.53391E-6	-47.629592
1.533955E-6	-47.500682
1.534E-6	-46.401645
1.534045E-6	-38.591778
1.53409E-6	-25.675117
1.534135E-6	-20.667659
1.53418E-6	-18.680607
1.534225E-6	-18.31208
1.53427E-6	-18.315025
1.534315E-6	-18.374356
1.53436E-6	-18.480176
1.534405E-6	-18.985966
1.53445E-6	-21.135093
1.534495E-6	-26.274562
1.53454E-6	-35.975667
1.534585E-6	-43.859469
1.53463E-6	-47.050931
1.534675E-6	-47.775437
1.53472E-6	-47.843624
1.534765E-6	-47.335331
1.53481E-6	-44.025242
1.534855E-6	-30.202696
1.5349E-6	-22.467234
1.534945E-6	-19.303319
1.53499E-6	-18.365404
1.535035E-6	-18.288588
1.53508E-6	-18.377344
1.535125E-6	-18.498578
1.53517E-6	-18.735439
1.535215E-6	-20.062993
1.53526E-6	-23.73865
1.535305E-6	-31.533537
1.53535E-6	-41.295961
1.535395E-6	-46.411138
1.53544E-6	-47.846268
1.535485E-6	-48.099486
1.53553E-6	-47.9129
1.535575E-6	-46.556077
1.53562E-6	-36.667543
1.535665E-6	-25.303252
1.53571E-6	-20.411973
1.535755E-6	-18.489367
1.5358E-6	-18.133261
1.535845E-6	-18.155925
1.53589E-6	-18.244882
1.535935E-6	-18.33866
1.53598E-6	-18.9279
1.536025E-6	-21.212485
1.53607E-6	-26.9897
1.536115E-6	-37.166988
1.53616E-6	-44.631891
1.536205E-6	-47.517814
1.53625E-6	-48.207355
1.536295E-6	-48.253588
1.53634E-6	-47.614521
1.536385E-6	-43.808023
1.53643E-6	-29.850597
1.536475E-6	-22.016947
1.53652E-6	-18.91435
1.536565E-6	-18.027194
1.53661E-6	-17.94525
1.536655E-6	-17.977842
1.5367E-6	-18.01893
1.536745E-6	-18.236193
1.53679E-6	-19.570309
1.536835E-6	-23.264262
1.53688E-6	-31.350738
1.536925E-6	-41.176463
1.53697E-6	-46.558043
1.537015E-6	-48.068754
1.53706E-6	-48.398317
1.537105E-6	-48.173001
1.53715E-6	-46.655462
1.537195E-6	-36.548224
1.53724E-6	-24.910665
1.537285E-6	-20.034883
1.53733E-6	-18.144578
1.537375E-6	-17.762445
1.53742E-6	-17.744323
1.537465E-6	-17.731424
1.53751E-6	-17.806775
1.537555E-6	-18.317973
1.5376E-6	-20.605307
1.537645E-6	-26.236056
1.53769E-6	-36.462761
1.537735E-6	-44.308603
1.53778E-6	-47.50557
1.537825E-6	-48.350526
1.53787E-6	-48.422411
1.537915E-6	-47.833064
1.53796E-6	-44.404524
1.538005E-6	-30.375833
1.53805E-6	-22.164537
1.538095E-6	-18.830604
1.53814E-6	-17.79369
1.538185E-6	-17.612014
1.53823E-6	-17.597004
1.538275E-6	-17.572102
1.53832E-6	-17.700623
1.538365E-6	-18.867253
1.53841E-6	-22.36572
1.538455E-6	-30.020024
1.5385E-6	-40.134522
1.538545E-6	-46.092415
1.53859E-6	-47.996968
1.538635E-6	-48.425432
1.53868E-6	-48.256494
1.538725E-6	-47.022395
1.53877E-6	-38.687022
1.538815E-6	-25.73001
1.53886E-6	-20.433994
1.538905E-6	-18.309136
1.53895E-6	-17.809397
1.538995E-6	-17.721133
1.53904E-6	-17.682756
1.539085E-6	-17.677665
1.53913E-6	-18.091083
1.539175E-6	-20.126466
1.53922E-6	-25.326879
1.539265E-6	-35.36107
1.53931E-6	-43.627105
1.539355E-6	-47.293212
1.5394E-6	-48.233301
1.539445E-6	-48.347557
1.53949E-6	-47.85421
1.539535E-6	-44.989407
1.53958E-6	-31.415831
1.539625E-6	-22.734358
1.53967E-6	-19.222688
1.539715E-6	-18.013429
1.53976E-6	-17.804155
1.539805E-6	-17.734001
1.53985E-6	-17.675121
1.539895E-6	-17.734001
1.53994E-6	-18.687022
1.539985E-6	-21.910467
1.54003E-6	-29.593977
1.540075E-6	-39.434763
1.54012E-6	-45.746288
1.540165E-6	-47.767637
1.54021E-6	-48.227522
1.540255E-6	-48.147412
1.5403E-6	-47.146678
1.540345E-6	-40.25903
1.54039E-6	-26.815193
1.540435E-6	-20.976163
1.54048E-6	-18.53872
1.540525E-6	-17.870138
1.54057E-6	-17.754669
1.540615E-6	-17.675121
1.54066E-6	-17.659892
1.540705E-6	-17.961515
1.54075E-6	-19.722428
1.540795E-6	-24.346245
1.54084E-6	-33.543813
1.540885E-6	-42.515019
1.54093E-6	-46.781945
1.540975E-6	-47.956087
1.54102E-6	-48.124793
1.541065E-6	-47.806775
1.54111E-6	-45.909126
1.541155E-6	-33.796557
1.5412E-6	-24.019759
1.541245E-6	-19.854795
1.54129E-6	-18.256494
1.541335E-6	-17.90217
1.54138E-6	-17.814645
1.541425E-6	-17.759852
1.54147E-6	-17.796304
1.541515E-6	-18.526329
1.54156E-6	-21.280186
1.541605E-6	-27.703182
1.54165E-6	-38.227522
1.541695E-6	-44.901257
1.54174E-6	-47.387371
1.541785E-6	-47.93714
1.54183E-6	-47.910215
1.541875E-6	-47.198771
1.54192E-6	-42.72947
1.541965E-6	-28.674202
1.54201E-6	-21.54902
1.542055E-6	-18.680607
1.5421E-6	-17.840982
1.542145E-6	-17.685304
1.54219E-6	-17.634627
1.542235E-6	-17.592012
1.54228E-6	-17.728849
1.542325E-6	-19.003194
1.54237E-6	-22.808345
1.542415E-6	-30.879906
1.54246E-6	-40.617806
1.542505E-6	-45.958508
1.54255E-6	-47.542406
1.542595E-6	-47.833064
1.54264E-6	-47.6675
1.542685E-6	-46.420652
1.54273E-6	-37.101882
1.542775E-6	-25.440898
1.54282E-6	-20.374413
1.542865E-6	-18.44057
1.54291E-6	-17.972393
1.542955E-6	-17.878124
1.543E-6	-17.846268
1.543045E-6	-17.814645
1.54309E-6	-18.147412
1.543135E-6	-20.11441
1.54318E-6	-25.001755
1.543225E-6	-34.92684
1.54327E-6	-43.102473
1.543315E-6	-46.742791
1.54336E-6	-47.619539
1.543405E-6	-47.736579
1.54345E-6	-47.32359
1.543495E-6	-44.907975
1.54354E-6	-32.009353
1.543585E-6	-23.122036
1.54363E-6	-19.473061
1.543675E-6	-18.158766
1.54372E-6	-17.918275
1.543765E-6	-17.840982
1.54381E-6	-17.822529
1.543855E-6	-17.872798
1.5439E-6	-18.635966
1.543945E-6	-21.433315
1.54399E-6	-28.082696
1.544035E-6	-38.501653
1.54408E-6	-44.727569
1.544125E-6	-47.130946
1.54417E-6	-47.654827
1.544215E-6	-47.627077
1.54426E-6	-46.92504
1.544305E-6	-42.326215
1.54435E-6	-28.422411
1.544395E-6	-21.530447
1.54444E-6	-18.830604
1.544485E-6	-18.071539
1.54453E-6	-17.942545
1.544575E-6	-17.89414
1.54462E-6	-17.883456
1.544665E-6	-18.035475
1.54471E-6	-19.262816
1.544755E-6	-23.073293
1.5448E-6	-31.121015
1.544845E-6	-40.942041
1.54489E-6	-45.999804
1.544935E-6	-47.363639
1.54498E-6	-47.637147
1.545025E-6	-47.459355
1.54507E-6	-46.187044
1.545115E-6	-36.276404
1.54516E-6	-25.089186
1.545205E-6	-20.25166
1.54525E-6	-18.380334
1.545295E-6	-17.9588
1.54534E-6	-17.878124
1.545385E-6	-17.846268
1.54543E-6	-17.851562
1.545475E-6	-18.259402
1.54552E-6	-20.293278
1.545565E-6	-25.290018
1.54561E-6	-34.972998
1.545655E-6	-43.096267
1.5457E-6	-46.601512
1.545745E-6	-47.483618
1.54579E-6	-47.624563
1.545835E-6	-47.288557
1.54588E-6	-45.238933
1.545925E-6	-32.96107
1.54597E-6	-23.379981
1.546015E-6	-19.515582
1.54606E-6	-18.204482
1.546105E-6	-17.94525
1.54615E-6	-17.90485
1.546195E-6	-17.891466
1.54624E-6	-17.920965
1.546285E-6	-18.576105
1.54633E-6	-21.209041
1.546375E-6	-27.527635
1.54642E-6	-37.685304
1.546465E-6	-44.508741
1.54651E-6	-46.976691
1.546555E-6	-47.559704
1.5466E-6	-47.579558
1.546645E-6	-46.978856
1.54669E-6	-42.84749
1.546735E-6	-29.303319
1.54678E-6	-22.029403
1.546825E-6	-19.08333
1.54687E-6	-18.167302
1.546915E-6	-17.999707
1.54696E-6	-17.977842
1.547005E-6	-17.966951
1.54705E-6	-18.107905
1.547095E-6	-19.200955
1.54714E-6	-22.581396
1.547185E-6	-29.833845
1.54723E-6	-39.718356
1.547275E-6	-45.525319
1.54732E-6	-47.251497
1.547365E-6	-47.592012
1.54741E-6	-47.500682
1.547455E-6	-46.583677
1.5475E-6	-40.049794
1.547545E-6	-26.683703
1.54759E-6	-20.958798
1.547635E-6	-18.671002
1.54768E-6	-18.105097
1.547725E-6	-17.994231
1.54777E-6	-17.983298
1.547815E-6	-17.991495
1.54786E-6	-18.193008
1.547905E-6	-19.653715
1.54795E-6	-23.828948
1.547995E-6	-32.60665
1.54804E-6	-41.796015
1.548085E-6	-46.14215
1.54813E-6	-47.387371
1.548175E-6	-47.602002
1.54822E-6	-47.389752
1.548265E-6	-45.944829
1.54831E-6	-35.43634
1.548355E-6	-24.808285
1.5484E-6	-20.22505
1.548445E-6	-18.45576
1.54849E-6	-18.021683
1.548535E-6	-17.975117
1.54858E-6	-17.972393
1.548625E-6	-17.983298
1.54867E-6	-18.374356
1.548715E-6	-20.440718
1.54876E-6	-25.609833
1.548805E-6	-35.343198
1.54885E-6	-43.28642
1.548895E-6	-46.671577
1.54894E-6	-47.478754
1.548985E-6	-47.574586
1.54903E-6	-47.219327
1.549075E-6	-45.043169
1.54912E-6	-33.110465
1.549165E-6	-23.655227
1.54921E-6	-19.710223
1.549255E-6	-18.273971
1.5493E-6	-18.024438
1.549345E-6	-17.980569
1.54939E-6	-17.991495
1.549435E-6	-18.029953
1.54948E-6	-18.664611
1.549525E-6	-21.198154
1.54957E-6	-27.097427
1.549615E-6	-37.508016
1.54966E-6	-44.22738
1.549705E-6	-46.8867
1.54975E-6	-47.490923
1.549795E-6	-47.512913
1.54984E-6	-46.987529
1.549885E-6	-43.639135
1.54993E-6	-30.236959
1.549975E-6	-22.343314
1.55002E-6	-19.147094
1.550065E-6	-18.158766
1.55011E-6	-17.983298
1.550155E-6	-17.950665
1.5502E-6	-17.929045
1.550245E-6	-17.986029
1.55029E-6	-18.722475
1.550335E-6	-21.603334
1.55038E-6	-28.458805
1.550425E-6	-38.968807
1.55047E-6	-44.930893
1.550515E-6	-47.024583
1.55056E-6	-47.469044
1.550605E-6	-47.435228
1.55065E-6	-46.716204
1.550695E-6	-41.771131
1.55074E-6	-28.144578
1.550785E-6	-21.519957
1.55083E-6	-18.823973
1.550875E-6	-18.107905
1.55092E-6	-17.966951
1.550965E-6	-17.92635
1.55101E-6	-17.918275
1.551055E-6	-18.013429
1.5511E-6	-19.118639
1.551145E-6	-22.605859
1.55119E-6	-30.125125
1.551235E-6	-40.048037
1.55128E-6	-45.505216
1.551325E-6	-47.119745
1.55137E-6	-47.449688
1.551415E-6	-47.354183
1.55146E-6	-46.483969
1.551505E-6	-40.097944
1.55155E-6	-26.950788
1.551595E-6	-21.090762
1.55164E-6	-18.706324
1.551685E-6	-18.082696
1.55173E-6	-17.966951
1.551775E-6	-17.92635
1.55182E-6	-17.915586
1.551865E-6	-18.110715
1.55191E-6	-19.50782
1.551955E-6	-23.503731
1.552E-6	-31.783555
1.552045E-6	-41.051303
1.55209E-6	-45.861975
1.552135E-6	-47.16925
1.55218E-6	-47.404061
1.552225E-6	-47.233085
1.55227E-6	-45.989443
1.552315E-6	-36.732546
1.55236E-6	-25.37153
1.552405E-6	-20.355518
1.55245E-6	-18.44057
1.552495E-6	-18.013429
1.55254E-6	-17.942545
1.552585E-6	-17.896815
1.55263E-6	-17.888795
1.552675E-6	-18.167302
1.55272E-6	-19.92679
1.552765E-6	-24.634416
1.55281E-6	-33.610118
1.552855E-6	-42.338847
1.5529E-6	-46.217839
1.552945E-6	-47.203331
1.55299E-6	-47.361273
1.553035E-6	-47.113037
1.55308E-6	-45.564241
1.553125E-6	-34.754741
1.55317E-6	-24.277094
1.553215E-6	-19.961088
1.55326E-6	-18.362425
1.553305E-6	-17.999707
1.55335E-6	-17.910215
1.553395E-6	-17.886124
1.55344E-6	-17.878124
1.553485E-6	-18.300318
1.55353E-6	-20.317039
1.553575E-6	-25.254924
1.55362E-6	-34.870489
1.553665E-6	-42.84749
1.55371E-6	-46.320853
1.553755E-6	-47.185121
1.5538E-6	-47.297871
1.553845E-6	-46.996219
1.55389E-6	-45.079384
1.553935E-6	-33.005092
1.55398E-6	-23.611116
1.554025E-6	-19.702105
1.55407E-6	-18.315025
1.554115E-6	-18.007935
1.55416E-6	-17.923656
1.554205E-6	-17.891466
1.55425E-6	-17.896815
1.554295E-6	-18.350526
1.55434E-6	-20.568519
1.554385E-6	-25.943122
1.55443E-6	-36.003263
1.554475E-6	-43.418932
1.55452E-6	-46.458916
1.554565E-6	-47.162466
1.55461E-6	-47.244583
1.554655E-6	-46.850799
1.5547E-6	-44.497716
1.554745E-6	-31.560202
1.55479E-6	-22.96107
1.554835E-6	-19.496202
1.55488E-6	-18.262312
1.554925E-6	-17.977842
1.55497E-6	-17.93444
1.555015E-6	-17.899492
1.55506E-6	-17.920965
1.555105E-6	-18.495506
1.55515E-6	-20.836513
1.555195E-6	-26.677636
1.55524E-6	-36.93575
1.555285E-6	-43.805936
1.55533E-6	-46.499459
1.555375E-6	-47.14893
1.55542E-6	-47.176045
1.555465E-6	-46.683703
1.55551E-6	-43.564486
1.555555E-6	-30.235125
1.5556E-6	-22.348532
1.555645E-6	-19.19013
1.55569E-6	-18.147412
1.555735E-6	-17.93444
1.55578E-6	-17.93444
1.555825E-6	-17.90485
1.55587E-6	-17.93714
1.555915E-6	-18.544928
1.55596E-6	-21.02868
1.556005E-6	-27.160207
1.55605E-6	-37.498241
1.556095E-6	-44.119525
1.55614E-6	-46.571827
1.556185E-6	-47.121983
1.55623E-6	-47.135435
1.556275E-6	-46.655462
1.55632E-6	-43.494011
1.556365E-6	-30.165993
1.55641E-6	-22.350024
1.556455E-6	-19.154237
1.5565E-6	-18.077114
1.556545E-6	-17.856861
1.55659E-6	-17.867479
1.556635E-6	-17.848914
1.55668E-6	-17.90217
1.556725E-6	-18.623295
1.55677E-6	-21.360232
1.556815E-6	-27.833064
1.55686E-6	-38.046539
1.556905E-6	-44.340342
1.55695E-6	-46.641411
1.556995E-6	-47.099654
1.55704E-6	-47.119745
1.557085E-6	-46.621416
1.55713E-6	-43.247717
1.557175E-6	-29.880069
1.55722E-6	-22.228633
1.557265E-6	-19.069287
1.55731E-6	-18.06319
1.557355E-6	-17.872798
1.5574E-6	-17.835702
1.557445E-6	-17.830428
1.55749E-6	-17.907532
1.557535E-6	-18.693447
1.55758E-6	-21.514414
1.557625E-6	-28.144578
1.55767E-6	-38.480176
1.557715E-6	-44.497716
1.55776E-6	-46.653452
1.557805E-6	-47.135435
1.55785E-6	-47.14893
1.557895E-6	-46.617428
1.55794E-6	-43.055703
1.557985E-6	-29.726504
1.55803E-6	-22.219935
1.558075E-6	-19.027427
1.55812E-6	-17.983298
1.558165E-6	-17.767637
1.55821E-6	-17.749493
1.558255E-6	-17.770236
1.5583E-6	-17.864822
1.558345E-6	-18.671002
1.55839E-6	-21.64246
1.558435E-6	-28.489367
1.55848E-6	-38.725712
1.558525E-6	-44.625587
1.55857E-6	-46.73869
1.558615E-6	-47.203331
1.55866E-6	-47.212464
1.558705E-6	-46.685727
1.55875E-6	-42.975695
1.558795E-6	-29.50782
1.55884E-6	-22.103488
1.558885E-6	-18.982529
1.55893E-6	-18.032713
1.558975E-6	-17.862167
1.55902E-6	-17.85421
1.559065E-6	-17.864822
1.55911E-6	-17.956087
1.559155E-6	-18.754958
1.5592E-6	-21.578902
1.559245E-6	-28.247782
1.55929E-6	-38.591778
1.559335E-6	-44.631891
1.55938E-6	-46.844495
1.559425E-6	-47.31422
1.55947E-6	-47.31422
1.559515E-6	-46.744843
1.55956E-6	-42.883615
1.559605E-6	-29.303319
1.55965E-6	-21.964746
1.559695E-6	-18.931295
1.55974E-6	-18.043771
1.559785E-6	-17.888795
1.55983E-6	-17.90485
1.559875E-6	-17.942545
1.55992E-6	-18.043771
1.559965E-6	-18.863908
1.56001E-6	-21.741846
1.560055E-6	-28.4649
1.5601E-6	-38.784402
1.560145E-6	-44.849213
1.56019E-6	-46.965879
1.560235E-6	-47.47147
1.56028E-6	-47.493361
1.560325E-6	-46.970201
1.56037E-6	-43.586251
1.560415E-6	-30.207249
1.56046E-6	-22.191069
1.560505E-6	-18.90759
1.56055E-6	-17.910215
1.560595E-6	-17.75208
1.56064E-6	-17.75726
1.560685E-6	-17.81202
1.56073E-6	-17.92635
1.560775E-6	-18.728952
1.56082E-6	-21.568295
1.560865E-6	-28.368386
1.56091E-6	-38.771291
1.560955E-6	-44.862498
1.561E-6	-47.126462
1.561045E-6	-47.657359
1.56109E-6	-47.68021
1.561135E-6	-47.155693
1.56118E-6	-43.881705
1.561225E-6	-30.2365
1.56127E-6	-22.156681
1.561315E-6	-18.894103
1.56136E-6	-17.896815
1.561405E-6	-17.749493
1.56145E-6	-17.767637
1.561495E-6	-17.8199
1.56154E-6	-17.931741
1.561585E-6	-18.620133
1.56163E-6	-21.280186
1.561675E-6	-27.647241
1.56172E-6	-37.851562
1.561765E-6	-44.652126
1.56181E-6	-47.228494
1.561855E-6	-47.848914
1.5619E-6	-47.920965
1.561945E-6	-47.515363
1.56199E-6	-44.994891
1.562035E-6	-32.003838
1.56208E-6	-22.968807
1.562125E-6	-19.248181
1.56217E-6	-17.994231
1.562215E-6	-17.81202
1.56226E-6	-17.840982
1.562305E-6	-17.89414
1.56235E-6	-17.996968
1.562395E-6	-18.535619
1.56244E-6	-20.791986
1.562485E-6	-26.304131
1.56253E-6	-36.185239
1.562575E-6	-43.882767
1.56262E-6	-47.207895
1.562665E-6	-48.068754
1.56271E-6	-48.175853
1.562755E-6	-47.809397
1.5628E-6	-45.655908
1.562845E-6	-33.226668
1.56289E-6	-23.313346
1.562935E-6	-19.226321
1.56298E-6	-17.81202
1.563025E-6	-17.559704
1.56307E-6	-17.589518
1.563115E-6	-17.6675
1.56316E-6	-17.765041
1.563205E-6	-18.236193
1.56325E-6	-20.411018
1.563295E-6	-25.583049
1.56334E-6	-35.583049
1.563385E-6	-43.575355
1.56343E-6	-47.265357
1.563475E-6	-48.309136
1.56352E-6	-48.44664
