Wavelength (nm)	Power (dBm)
1.525E-6	-49.515582
1.525045E-6	-49.362914
1.52509E-6	-49.251836
1.525135E-6	-49.161392
1.52518E-6	-49.100949
1.525225E-6	-48.972234
1.52527E-6	-48.833923
1.525315E-6	-48.699881
1.52536E-6	-48.572978
1.525405E-6	-48.45576
1.52545E-6	-48.315025
1.525495E-6	-48.116341
1.52554E-6	-47.87546
1.525585E-6	-47.677665
1.52563E-6	-47.532553
1.525675E-6	-47.384992
1.52572E-6	-47.263044
1.525765E-6	-47.135435
1.52581E-6	-47.013652
1.525855E-6	-46.952941
1.5259E-6	-46.961562
1.525945E-6	-46.985359
1.52599E-6	-46.946486
1.526035E-6	-46.855008
1.52608E-6	-46.765416
1.526125E-6	-46.679657
1.52617E-6	-46.581699
1.526215E-6	-46.458916
1.52626E-6	-46.276404
1.526305E-6	-45.955084
1.52635E-6	-45.795491
1.526395E-6	-45.62408
1.52644E-6	-45.514483
1.526485E-6	-45.392525
1.52653E-6	-45.272436
1.526575E-6	-45.236032
1.52662E-6	-45.134278
1.526665E-6	-45.254924
1.52671E-6	-45.318004
1.526755E-6	-45.295895
1.5268E-6	-45.281218
1.526845E-6	-45.204247
1.52689E-6	-45.145625
1.526935E-6	-45.068209
1.52698E-6	-45.001755
1.527025E-6	-44.795165
1.52707E-6	-44.527177
1.527115E-6	-44.243504
1.52716E-6	-44.086014
1.527205E-6	-44.018664
1.52725E-6	-43.900856
1.527295E-6	-43.849974
1.52734E-6	-43.799681
1.527385E-6	-43.736596
1.52743E-6	-43.821613
1.527475E-6	-44.000078
1.52752E-6	-44.187332
1.527565E-6	-44.162346
1.52761E-6	-44.125135
1.527655E-6	-44.089354
1.5277E-6	-44.031831
1.527745E-6	-44.03293
1.52779E-6	-43.885954
1.527835E-6	-43.637127
1.52788E-6	-43.256901
1.527925E-6	-43.125602
1.52797E-6	-43.068889
1.528015E-6	-42.947351
1.52806E-6	-42.914092
1.528105E-6	-42.953348
1.52815E-6	-42.927706
1.528195E-6	-43.049563
1.52824E-6	-43.279021
1.528285E-6	-43.555614
1.52833E-6	-43.641143
1.528375E-6	-43.680492
1.52842E-6	-43.643152
1.528465E-6	-43.640139
1.52851E-6	-43.588235
1.528555E-6	-43.5635
1.5286E-6	-43.316141
1.528645E-6	-42.955063
1.52869E-6	-42.708352
1.528735E-6	-42.639224
1.52878E-6	-42.651202
1.528825E-6	-42.592427
1.52887E-6	-42.619333
1.528915E-6	-42.624098
1.52896E-6	-42.704303
1.529005E-6	-42.999023
1.52905E-6	-43.308692
1.529095E-6	-43.571399
1.52914E-6	-43.614109
1.529185E-6	-43.592205
1.52923E-6	-43.621102
1.529275E-6	-43.638131
1.52932E-6	-43.629107
1.529365E-6	-43.442855
1.52941E-6	-43.075056
1.529455E-6	-42.795099
1.5295E-6	-42.629665
1.529545E-6	-42.627278
1.52959E-6	-42.61061
1.529635E-6	-42.66161
1.52968E-6	-42.638426
1.529725E-6	-42.669633
1.52977E-6	-42.970528
1.529815E-6	-43.313346
1.52986E-6	-43.677452
1.529905E-6	-43.776823
1.52995E-6	-43.77061
1.529995E-6	-43.835245
1.53004E-6	-43.750994
1.530085E-6	-43.837346
1.53013E-6	-43.745846
1.530175E-6	-43.41607
1.53022E-6	-42.983457
1.530265E-6	-42.773661
1.53031E-6	-42.705922
1.530355E-6	-42.739251
1.5304E-6	-42.735173
1.530445E-6	-42.732728
1.53049E-6	-42.751509
1.530535E-6	-42.935383
1.53058E-6	-43.367704
1.530625E-6	-43.784083
1.53067E-6	-43.927595
1.530715E-6	-44.000078
1.53076E-6	-43.936186
1.530805E-6	-43.948027
1.53085E-6	-43.994627
1.530895E-6	-43.976144
1.53094E-6	-43.682519
1.530985E-6	-43.225756
1.53103E-6	-42.89375
1.531075E-6	-42.84749
1.53112E-6	-42.801717
1.531165E-6	-42.823295
1.53121E-6	-42.772838
1.531255E-6	-42.830789
1.5313E-6	-42.922595
1.531345E-6	-43.315209
1.53139E-6	-43.783045
1.531435E-6	-44.027437
1.53148E-6	-44.120647
1.531525E-6	-44.05497
1.53157E-6	-44.140883
1.531615E-6	-44.089354
1.53166E-6	-44.084902
1.531705E-6	-43.929741
1.53175E-6	-43.490129
1.531795E-6	-43.073293
1.53184E-6	-42.943073
1.531885E-6	-42.918341
1.53193E-6	-42.920893
1.531975E-6	-42.883615
1.53202E-6	-42.909846
1.532065E-6	-42.94992
1.53211E-6	-43.233064
1.532155E-6	-43.682519
1.5322E-6	-43.996807
1.532245E-6	-44.110564
1.53229E-6	-44.139756
1.532335E-6	-44.162346
1.53238E-6	-44.17255
1.532425E-6	-44.134127
1.53247E-6	-44.090468
1.532515E-6	-43.695721
1.53256E-6	-43.304972
1.532605E-6	-43.031196
1.53265E-6	-43.003357
1.532695E-6	-42.981731
1.53274E-6	-43.000756
1.532785E-6	-42.967946
1.53283E-6	-43.031196
1.532875E-6	-43.160529
1.53292E-6	-43.588235
1.532965E-6	-43.992449
1.53301E-6	-44.12289
1.533055E-6	-44.179366
1.5331E-6	-44.222785
1.533145E-6	-44.206738
1.53319E-6	-44.165745
1.533235E-6	-44.19075
1.53328E-6	-43.931889
1.533325E-6	-43.519329
1.53337E-6	-43.210266
1.533415E-6	-43.140792
1.53346E-6	-43.122927
1.533505E-6	-43.091839
1.53355E-6	-43.091839
1.533595E-6	-43.146166
1.53364E-6	-43.211176
1.533685E-6	-43.459198
1.53373E-6	-43.824755
1.533775E-6	-44.113922
1.53382E-6	-44.147649
1.533865E-6	-44.23083
1.53391E-6	-44.212462
1.533955E-6	-44.171415
1.534E-6	-44.186193
1.534045E-6	-44.109445
1.53409E-6	-43.806979
1.534135E-6	-43.494982
1.53418E-6	-43.324537
1.534225E-6	-43.291977
1.53427E-6	-43.2468
1.534315E-6	-43.272558
1.53436E-6	-43.290124
1.534405E-6	-43.29847
1.53445E-6	-43.461124
1.534495E-6	-43.719177
1.53454E-6	-44.05718
1.534585E-6	-44.136378
1.53463E-6	-44.203307
1.534675E-6	-44.223933
1.53472E-6	-44.22968
1.534765E-6	-44.209027
1.53481E-6	-44.163479
1.534855E-6	-43.985919
1.5349E-6	-43.739678
1.534945E-6	-43.461124
1.53499E-6	-43.377145
1.535035E-6	-43.404641
1.53508E-6	-43.401788
1.535125E-6	-43.425617
1.53517E-6	-43.438059
1.535215E-6	-43.436143
1.53526E-6	-43.674415
1.535305E-6	-43.965308
1.53535E-6	-44.170281
1.535395E-6	-44.206738
1.53544E-6	-44.233132
1.535485E-6	-44.186193
1.53553E-6	-44.170281
1.535575E-6	-44.181641
1.53562E-6	-44.064924
1.535665E-6	-43.893398
1.53571E-6	-43.620102
1.535755E-6	-43.48722
1.5358E-6	-43.438059
1.535845E-6	-43.451499
1.53589E-6	-43.473669
1.535935E-6	-43.477537
1.53598E-6	-43.470771
1.536025E-6	-43.575355
1.53607E-6	-43.840499
1.536115E-6	-44.060497
1.53616E-6	-44.151037
1.536205E-6	-44.151037
1.53625E-6	-44.133002
1.536295E-6	-44.117283
1.53634E-6	-44.133002
1.536385E-6	-44.109445
1.53643E-6	-43.960982
1.536475E-6	-43.7202
1.53652E-6	-43.529106
1.536565E-6	-43.459198
1.53661E-6	-43.479472
1.536655E-6	-43.478504
1.5367E-6	-43.464981
1.536745E-6	-43.470771
1.53679E-6	-43.489159
1.536835E-6	-43.653212
1.53688E-6	-43.885954
1.536925E-6	-44.047243
1.53697E-6	-44.050553
1.537015E-6	-44.063817
1.53706E-6	-44.051656
1.537105E-6	-44.047243
1.53715E-6	-44.047243
1.537195E-6	-43.988095
1.53724E-6	-43.785121
1.537285E-6	-43.569423
1.53733E-6	-43.455347
1.537375E-6	-43.412257
1.53742E-6	-43.417023
1.537465E-6	-43.439977
1.53751E-6	-43.415116
1.537555E-6	-43.42275
1.5376E-6	-43.539886
1.537645E-6	-43.721223
1.53769E-6	-43.876401
1.537735E-6	-43.985919
1.53778E-6	-44.021952
1.537825E-6	-43.969639
1.53787E-6	-43.964226
1.537915E-6	-43.950184
1.53796E-6	-43.976144
1.538005E-6	-43.826851
1.53805E-6	-43.608124
1.538095E-6	-43.455347
1.53814E-6	-43.412257
1.538185E-6	-43.391345
1.53823E-6	-43.41607
1.538275E-6	-43.424661
1.53832E-6	-43.3762
1.538365E-6	-43.431355
1.53841E-6	-43.5635
1.538455E-6	-43.776823
1.5385E-6	-43.936186
1.538545E-6	-43.928668
1.53859E-6	-43.945872
1.538635E-6	-43.968556
1.53868E-6	-43.965308
1.538725E-6	-43.940488
1.53877E-6	-43.868985
1.538815E-6	-43.680492
1.53886E-6	-43.494982
1.538905E-6	-43.399888
1.53895E-6	-43.40369
1.538995E-6	-43.380927
1.53904E-6	-43.365818
1.539085E-6	-43.366761
1.53913E-6	-43.367704
1.539175E-6	-43.481407
1.53922E-6	-43.677452
1.539265E-6	-43.867926
1.53931E-6	-43.937261
1.539355E-6	-43.9794
1.5394E-6	-43.977229
1.539445E-6	-43.972891
1.53949E-6	-43.987007
1.539535E-6	-43.965308
1.53958E-6	-43.833145
1.539625E-6	-43.644157
1.53967E-6	-43.459198
1.539715E-6	-43.408447
1.53976E-6	-43.417977
1.539805E-6	-43.37809
1.53985E-6	-43.406544
1.539895E-6	-43.396089
1.53994E-6	-43.440936
1.539985E-6	-43.609121
1.54003E-6	-43.834195
1.540075E-6	-43.977229
1.54012E-6	-43.996807
1.540165E-6	-43.987007
1.54021E-6	-44.024145
1.540255E-6	-44.024145
1.5403E-6	-44.026339
1.540345E-6	-44.030732
1.54039E-6	-43.829997
1.540435E-6	-43.592205
1.54048E-6	-43.478504
1.540525E-6	-43.432312
1.54057E-6	-43.449577
1.540615E-6	-43.438059
1.54066E-6	-43.430398
1.540705E-6	-43.442855
1.54075E-6	-43.561527
1.540795E-6	-43.744818
1.54084E-6	-43.956659
1.540885E-6	-44.061603
1.54093E-6	-44.076012
1.540975E-6	-44.104972
1.54102E-6	-44.102737
1.541065E-6	-44.119525
1.54111E-6	-44.096041
1.541155E-6	-43.978314
1.5412E-6	-43.795516
1.541245E-6	-43.537924
1.54129E-6	-43.497896
1.541335E-6	-43.464981
1.54138E-6	-43.475603
1.541425E-6	-43.484313
1.54147E-6	-43.484313
1.541515E-6	-43.518352
1.54156E-6	-43.649186
1.541605E-6	-43.859469
1.54165E-6	-44.084902
1.541695E-6	-44.126258
1.54174E-6	-44.179366
1.541785E-6	-44.163479
1.54183E-6	-44.104972
1.541875E-6	-43.820566
1.54192E-6	-41.568295
1.541965E-6	-29.93534
1.54201E-6	-22.31214
1.542055E-6	-19.111554
1.5421E-6	-18.121974
1.542145E-6	-17.918275
1.54219E-6	-17.872798
1.542235E-6	-17.830428
1.54228E-6	-17.942545
1.542325E-6	-19.150664
1.54237E-6	-22.746602
1.542415E-6	-30.433994
1.54246E-6	-39.503944
1.542505E-6	-43.210266
1.54255E-6	-44.03293
1.542595E-6	-44.182778
1.54264E-6	-44.213608
1.542685E-6	-44.2159
1.54273E-6	-44.186193
1.542775E-6	-43.989183
1.54282E-6	-43.729415
1.542865E-6	-43.594192
1.54291E-6	-43.556599
1.542955E-6	-43.547743
1.543E-6	-43.557584
1.543045E-6	-43.568435
1.54309E-6	-43.574366
1.543135E-6	-43.655227
1.54318E-6	-43.898724
1.543225E-6	-44.145393
1.54327E-6	-44.272445
1.543315E-6	-44.301581
1.54336E-6	-44.306261
1.543405E-6	-44.264322
1.54345E-6	-44.12289
1.543495E-6	-43.257821
1.54354E-6	-33.901922
1.543585E-6	-24.166878
1.54363E-6	-19.986991
1.543675E-6	-18.452718
1.54372E-6	-18.158766
1.543765E-6	-18.105097
1.54381E-6	-18.10229
1.543855E-6	-18.113527
1.5439E-6	-18.904215
1.543945E-6	-21.699248
1.54399E-6	-28.198741
1.544035E-6	-38.138916
1.54408E-6	-42.842473
1.544125E-6	-44.068247
1.54417E-6	-44.298074
1.544215E-6	-44.347427
1.54426E-6	-44.369938
1.544305E-6	-44.360445
1.54435E-6	-44.185055
1.544395E-6	-43.895528
1.54444E-6	-43.693688
1.544485E-6	-43.633116
1.54453E-6	-43.644157
1.544575E-6	-43.646168
1.54462E-6	-43.646168
1.544665E-6	-43.655227
1.54471E-6	-43.70081
1.544755E-6	-43.904056
1.5448E-6	-44.212462
1.544845E-6	-44.397346
1.54489E-6	-44.441803
1.544935E-6	-44.429743
1.54498E-6	-44.410516
1.545025E-6	-44.332091
1.54507E-6	-43.868985
1.545115E-6	-38.823973
1.54516E-6	-26.507225
1.545205E-6	-21.055178
1.54525E-6	-18.817353
1.545295E-6	-18.285661
1.54534E-6	-18.195874
1.545385E-6	-18.167302
1.54543E-6	-18.175853
1.545475E-6	-18.535619
1.54552E-6	-20.405293
1.545565E-6	-25.310622
1.54561E-6	-34.391373
1.545655E-6	-41.666616
1.5457E-6	-43.911532
1.545745E-6	-44.360445
1.54579E-6	-44.463597
1.545835E-6	-44.500164
1.54588E-6	-44.500164
1.545925E-6	-44.391373
1.54597E-6	-44.121768
1.546015E-6	-43.855246
1.54606E-6	-43.76234
1.546105E-6	-43.736596
1.54615E-6	-43.744818
1.546195E-6	-43.744818
1.54624E-6	-43.73865
1.546285E-6	-43.766473
1.54633E-6	-43.909395
1.546375E-6	-44.205594
1.54642E-6	-44.455108
1.546465E-6	-44.529641
1.54651E-6	-44.546929
1.546555E-6	-44.546929
1.5466E-6	-44.527177
1.546645E-6	-44.309774
1.54669E-6	-42.772838
1.546735E-6	-31.391232
1.54678E-6	-23.021606
1.546825E-6	-19.601894
1.54687E-6	-18.483238
1.546915E-6	-18.291518
1.54696E-6	-18.253588
1.547005E-6	-18.259402
1.54705E-6	-18.395315
1.547095E-6	-19.450041
1.54714E-6	-22.816644
1.547185E-6	-29.978339
1.54723E-6	-39.408154
1.547275E-6	-43.49304
1.54732E-6	-44.355707
1.547365E-6	-44.554359
1.54741E-6	-44.585456
1.547455E-6	-44.597957
1.5475E-6	-44.545692
1.547545E-6	-44.336804
1.54759E-6	-44.048346
1.547635E-6	-43.868985
1.54768E-6	-43.827899
1.547725E-6	-43.816381
1.54777E-6	-43.810111
1.547815E-6	-43.798639
1.54786E-6	-43.833145
1.547905E-6	-43.898724
1.54795E-6	-44.134127
1.547995E-6	-44.428539
1.54804E-6	-44.585456
1.548085E-6	-44.628108
1.54813E-6	-44.636941
1.548175E-6	-44.621809
1.54822E-6	-44.523483
1.548265E-6	-43.939413
1.54831E-6	-36.92504
1.548355E-6	-25.800443
1.5484E-6	-20.768596
1.548445E-6	-18.790972
1.54849E-6	-18.335699
1.548535E-6	-18.285661
1.54858E-6	-18.247782
1.548625E-6	-18.294449
1.54867E-6	-18.683813
1.548715E-6	-20.674755
1.54876E-6	-25.779028
1.548805E-6	-35.386516
1.54885E-6	-42.16025
1.548895E-6	-44.115042
1.54894E-6	-44.537042
1.548985E-6	-44.633153
1.54903E-6	-44.639468
1.549075E-6	-44.63063
1.54912E-6	-44.522253
1.549165E-6	-44.253901
1.54921E-6	-43.990271
1.549255E-6	-43.864753
1.5493E-6	-43.844708
1.549345E-6	-43.831046
1.54939E-6	-43.835245
1.549435E-6	-43.829997
1.54948E-6	-43.859469
1.549525E-6	-43.985919
1.54957E-6	-44.267802
1.549615E-6	-44.532106
1.54966E-6	-44.629369
1.549705E-6	-44.659739
1.54975E-6	-44.653394
1.549795E-6	-44.607984
1.54984E-6	-44.40692
1.549885E-6	-43.099812
1.54993E-6	-32.138167
1.549975E-6	-23.396089
1.55002E-6	-19.75925
1.550065E-6	-18.529423
1.55011E-6	-18.315025
1.550155E-6	-18.294449
1.5502E-6	-18.282735
1.550245E-6	-18.332739
1.55029E-6	-19.111554
1.550335E-6	-21.947031
1.55038E-6	-28.507809
1.550425E-6	-38.523237
1.55047E-6	-43.152444
1.550515E-6	-44.323856
1.55056E-6	-44.558079
1.550605E-6	-44.609239
1.55065E-6	-44.621809
1.550695E-6	-44.592952
1.55074E-6	-44.427335
1.550785E-6	-44.10609
1.55083E-6	-43.873221
1.550875E-6	-43.811155
1.55092E-6	-43.795516
1.550965E-6	-43.798639
1.55101E-6	-43.795516
1.551055E-6	-43.800723
1.5511E-6	-43.834195
1.551145E-6	-44.019759
1.55119E-6	-44.352156
1.551235E-6	-44.565528
1.55128E-6	-44.619292
1.551325E-6	-44.615519
1.55137E-6	-44.609239
1.551415E-6	-44.540747
1.55146E-6	-44.179366
1.551505E-6	-40.94366
1.55155E-6	-28.236193
1.551595E-6	-21.778973
1.55164E-6	-19.164974
1.551685E-6	-18.425432
1.55173E-6	-18.329782
1.551775E-6	-18.309136
1.55182E-6	-18.279812
1.551865E-6	-18.471004
1.55191E-6	-19.901244
1.551955E-6	-23.808023
1.552E-6	-32.010043
1.552045E-6	-40.463853
1.55209E-6	-43.752024
1.552135E-6	-44.418917
1.55218E-6	-44.550642
1.552225E-6	-44.589202
1.55227E-6	-44.597957
1.552315E-6	-44.524714
1.55236E-6	-44.264322
1.552405E-6	-43.920091
1.55245E-6	-43.748934
1.552495E-6	-43.719177
1.55254E-6	-43.736596
1.552585E-6	-43.729415
1.55263E-6	-43.724293
1.552675E-6	-43.726341
1.55272E-6	-43.808023
1.552765E-6	-44.077122
1.55281E-6	-44.40213
1.552855E-6	-44.560561
1.5529E-6	-44.580465
1.552945E-6	-44.576726
1.55299E-6	-44.554359
1.553035E-6	-44.451476
1.55308E-6	-43.805936
1.553125E-6	-36.49752
1.55317E-6	-25.225893
1.553215E-6	-20.449861
1.55326E-6	-18.557372
1.553305E-6	-18.167302
1.55335E-6	-18.077114
1.553395E-6	-18.021683
1.55344E-6	-18.029953
1.553485E-6	-18.44057
1.55353E-6	-20.434474
1.553575E-6	-25.323919
1.55362E-6	-34.774254
1.553665E-6	-41.696038
1.55371E-6	-43.967473
1.553755E-6	-44.432152
1.5538E-6	-44.535807
1.553845E-6	-44.564286
1.55389E-6	-44.55932
1.553935E-6	-44.42132
1.55398E-6	-44.116162
1.554025E-6	-43.810111
1.55407E-6	-43.680492
1.554115E-6	-43.662287
1.55416E-6	-43.64818
1.554205E-6	-43.637127
1.55425E-6	-43.636124
1.554295E-6	-43.650192
1.55434E-6	-43.801765
1.554385E-6	-44.110564
1.55443E-6	-44.418917
1.554475E-6	-44.538276
1.55452E-6	-44.55932
1.554565E-6	-44.565528
1.55461E-6	-44.585456
1.554655E-6	-44.581712
1.5547E-6	-44.543219
1.554745E-6	-44.391373
1.55479E-6	-44.048346
1.554835E-6	-43.761307
1.55488E-6	-43.656235
1.554925E-6	-43.603143
1.55497E-6	-43.588235
1.555015E-6	-43.581295
1.55506E-6	-43.591212
1.555105E-6	-43.632113
1.55515E-6	-43.783045
1.555195E-6	-44.119525
1.55524E-6	-44.408118
1.555285E-6	-44.529641
1.55533E-6	-44.541982
1.555375E-6	-44.563044
1.55542E-6	-44.555599
1.555465E-6	-44.551881
1.55551E-6	-44.509967
1.555555E-6	-44.330913
1.5556E-6	-43.997897
1.555645E-6	-43.705904
1.55569E-6	-43.606131
1.555735E-6	-43.582285
1.55578E-6	-43.561527
1.555825E-6	-43.556599
1.55587E-6	-43.573377
1.555915E-6	-43.605135
1.55596E-6	-43.776823
1.556005E-6	-44.115042
1.55605E-6	-44.40692
1.556095E-6	-44.509967
1.55614E-6	-44.541982
1.556185E-6	-44.549404
1.55623E-6	-44.534573
1.556275E-6	-44.528409
1.55632E-6	-44.49527
1.556365E-6	-44.319157
1.55641E-6	-43.968556
1.556455E-6	-43.679478
1.5565E-6	-43.582285
1.556545E-6	-43.54676
1.55659E-6	-43.542831
1.556635E-6	-43.542831
1.55668E-6	-43.558569
1.556725E-6	-43.574366
1.55677E-6	-43.756148
1.556815E-6	-44.104972
1.55686E-6	-44.403327
1.556905E-6	-44.513649
1.55695E-6	-44.53334
1.556995E-6	-44.53334
1.55704E-6	-44.529641
1.557085E-6	-44.522253
1.55713E-6	-44.489161
1.557175E-6	-44.299243
1.55722E-6	-43.943718
1.557265E-6	-43.668346
1.55731E-6	-43.571399
1.557355E-6	-43.543813
1.5574E-6	-43.545777
1.557445E-6	-43.555614
1.55749E-6	-43.558569
1.557535E-6	-43.595186
1.55758E-6	-43.773716
1.557625E-6	-44.130753
1.55767E-6	-44.415314
1.557715E-6	-44.523483
1.55776E-6	-44.544455
1.557805E-6	-44.543219
1.55785E-6	-44.534573
1.557895E-6	-44.528409
1.55794E-6	-44.49894
1.557985E-6	-44.308603
1.55803E-6	-43.95342
1.558075E-6	-43.67644
1.55812E-6	-43.560541
1.558165E-6	-43.551677
1.55821E-6	-43.557584
1.558255E-6	-43.571399
1.5583E-6	-43.578324
1.558345E-6	-43.612113
1.55839E-6	-43.790316
1.558435E-6	-44.136378
1.55848E-6	-44.446637
1.558525E-6	-44.544455
1.55857E-6	-44.556839
1.558615E-6	-44.556839
1.55866E-6	-44.551881
1.558705E-6	-44.55312
1.55875E-6	-44.529641
1.558795E-6	-44.342702
1.55884E-6	-43.988095
1.558885E-6	-43.713046
1.55893E-6	-43.620102
1.558975E-6	-43.627105
1.55902E-6	-43.634118
1.559065E-6	-43.639135
1.55911E-6	-43.632113
1.559155E-6	-43.672391
1.5592E-6	-43.847867
1.559245E-6	-44.210172
1.55929E-6	-44.492826
1.559335E-6	-44.584208
1.55938E-6	-44.587953
1.559425E-6	-44.587953
1.55947E-6	-44.591702
1.559515E-6	-44.590452
1.55956E-6	-44.580465
1.559605E-6	-44.396151
1.55965E-6	-44.038429
1.559695E-6	-43.785121
1.55974E-6	-43.70081
1.559785E-6	-43.698774
1.55983E-6	-43.703866
1.559875E-6	-43.702847
1.55992E-6	-43.699791
1.559965E-6	-43.744818
1.56001E-6	-43.928668
1.560055E-6	-44.274769
1.5601E-6	-44.539511
1.560145E-6	-44.63063
1.56019E-6	-44.636941
1.560235E-6	-44.631891
1.56028E-6	-44.645793
1.560325E-6	-44.653394
1.56037E-6	-44.634416
1.560415E-6	-44.458744
1.56046E-6	-44.127382
1.560505E-6	-43.87428
1.56055E-6	-43.797598
1.560595E-6	-43.795516
1.56064E-6	-43.800723
1.560685E-6	-43.798639
1.56073E-6	-43.797598
1.560775E-6	-43.833145
1.56082E-6	-43.996807
1.560865E-6	-44.320331
1.56091E-6	-44.579219
1.560955E-6	-44.66355
1.561E-6	-44.661009
1.561045E-6	-44.666093
1.56109E-6	-44.677554
1.561135E-6	-44.680104
1.56118E-6	-44.671183
1.561225E-6	-44.507514
1.56127E-6	-44.202164
1.561315E-6	-43.962063
1.56136E-6	-43.897658
1.561405E-6	-43.895528
1.56145E-6	-43.889143
1.561495E-6	-43.895528
1.56154E-6	-43.89127
1.561585E-6	-43.923306
1.56163E-6	-44.076012
1.561675E-6	-44.354523
1.56172E-6	-44.592952
1.561765E-6	-44.676279
1.56181E-6	-44.683934
1.561855E-6	-44.695442
1.5619E-6	-44.704413
1.561945E-6	-44.709548
1.56199E-6	-44.689045
1.562035E-6	-44.560561
1.56208E-6	-44.307432
1.562125E-6	-44.074902
1.56217E-6	-43.99136
1.562215E-6	-43.971807
1.56226E-6	-43.971807
1.562305E-6	-43.964226
1.56235E-6	-43.967473
1.562395E-6	-43.998987
1.56244E-6	-44.108326
1.562485E-6	-44.341522
1.56253E-6	-44.591702
1.562575E-6	-44.677554
1.56262E-6	-44.696722
1.562665E-6	-44.722412
1.56271E-6	-44.72499
1.562755E-6	-44.734023
1.5628E-6	-44.701848
1.562845E-6	-44.597957
1.56289E-6	-44.377071
1.562935E-6	-44.154426
1.56298E-6	-44.063817
1.563025E-6	-44.045038
1.56307E-6	-44.034029
1.563115E-6	-44.037329
1.56316E-6	-44.038429
1.563205E-6	-44.071573
1.56325E-6	-44.162346
1.563295E-6	-44.369938
1.56334E-6	-44.596705
1.563385E-6	-44.691602
1.56343E-6	-44.719837
