Wavelength (nm)	Power (dBm)
1.525E-6	-48.917733
1.525045E-6	-48.768019
1.52509E-6	-48.639139
1.525135E-6	-48.544928
1.52518E-6	-48.4649
1.525225E-6	-48.320922
1.52527E-6	-48.184422
1.525315E-6	-48.046539
1.52536E-6	-47.939841
1.525405E-6	-47.801536
1.52545E-6	-47.662426
1.525495E-6	-47.488487
1.52554E-6	-47.276942
1.525585E-6	-47.101882
1.52563E-6	-46.957249
1.525675E-6	-46.831912
1.52572E-6	-46.691805
1.525765E-6	-46.565914
1.52581E-6	-46.462761
1.525855E-6	-46.392173
1.5259E-6	-46.360122
1.525945E-6	-46.36388
1.52599E-6	-46.311555
1.526035E-6	-46.221476
1.52608E-6	-46.127882
1.526125E-6	-46.032777
1.52617E-6	-45.898979
1.526215E-6	-45.805399
1.52626E-6	-45.654311
1.526305E-6	-45.398542
1.52635E-6	-45.263671
1.526395E-6	-45.094797
1.52644E-6	-45.01276
1.526485E-6	-44.851867
1.52653E-6	-44.800408
1.526575E-6	-44.72499
1.52662E-6	-44.672456
1.526665E-6	-44.699284
1.52671E-6	-44.715976
1.526755E-6	-44.78339
1.5268E-6	-44.67373
1.526845E-6	-44.601714
1.52689E-6	-44.521023
1.526935E-6	-44.457532
1.52698E-6	-44.373503
1.527025E-6	-44.244658
1.52707E-6	-44.021952
1.527115E-6	-43.802807
1.52716E-6	-43.625103
1.527205E-6	-43.574366
1.52725E-6	-43.455347
1.527295E-6	-43.397988
1.52734E-6	-43.406544
1.527385E-6	-43.351701
1.52743E-6	-43.372422
1.527475E-6	-43.52617
1.52752E-6	-43.638131
1.527565E-6	-43.625103
1.52761E-6	-43.582285
1.527655E-6	-43.549709
1.5277E-6	-43.550693
1.527745E-6	-43.456309
1.52779E-6	-43.37809
1.527835E-6	-43.166827
1.52788E-6	-42.913242
1.527925E-6	-42.788492
1.52797E-6	-42.664015
1.528015E-6	-42.676867
1.52806E-6	-42.618539
1.528105E-6	-42.612194
1.52815E-6	-42.641617
1.528195E-6	-42.702684
1.52824E-6	-42.889524
1.528285E-6	-43.119363
1.52833E-6	-43.197552
1.528375E-6	-43.148855
1.52842E-6	-43.219371
1.528465E-6	-43.202088
1.52851E-6	-43.13185
1.528555E-6	-43.130064
1.5286E-6	-42.992098
1.528645E-6	-42.707542
1.52869E-6	-42.471068
1.528735E-6	-42.421487
1.52878E-6	-42.338103
1.528825E-6	-42.44049
1.52887E-6	-42.416181
1.528915E-6	-42.423004
1.52896E-6	-42.497231
1.529005E-6	-42.720523
1.52905E-6	-43.019865
1.529095E-6	-43.179452
1.52914E-6	-43.269791
1.529185E-6	-43.225756
1.52923E-6	-43.273481
1.529275E-6	-43.199366
1.52932E-6	-43.193926
1.529365E-6	-43.146166
1.52941E-6	-42.845817
1.529455E-6	-42.579823
1.5295E-6	-42.501092
1.529545E-6	-42.497231
1.52959E-6	-42.510371
1.529635E-6	-42.49029
1.52968E-6	-42.558635
1.529725E-6	-42.595584
1.52977E-6	-42.754784
1.529815E-6	-43.101586
1.52986E-6	-43.375255
1.529905E-6	-43.452461
1.52995E-6	-43.481407
1.529995E-6	-43.469805
1.53004E-6	-43.517376
1.530085E-6	-43.554629
1.53013E-6	-43.426573
1.530175E-6	-43.228495
1.53022E-6	-42.866775
1.530265E-6	-42.713216
1.53031E-6	-42.68653
1.530355E-6	-42.705112
1.5304E-6	-42.71565
1.530445E-6	-42.720523
1.53049E-6	-42.758061
1.530535E-6	-42.88699
1.53058E-6	-43.156035
1.530625E-6	-43.56646
1.53067E-6	-43.657243
1.530715E-6	-43.666326
1.53076E-6	-43.719177
1.530805E-6	-43.717133
1.53085E-6	-43.717133
1.530895E-6	-43.660268
1.53094E-6	-43.465945
1.530985E-6	-43.154239
1.53103E-6	-42.899673
1.531075E-6	-42.844144
1.53112E-6	-42.862575
1.531165E-6	-42.87182
1.53121E-6	-42.870138
1.531255E-6	-42.865095
1.5313E-6	-42.979143
1.531345E-6	-43.223018
1.53139E-6	-43.592205
1.531435E-6	-43.799681
1.53148E-6	-43.849974
1.531525E-6	-43.853137
1.53157E-6	-43.859469
1.531615E-6	-43.873221
1.53166E-6	-43.842603
1.531705E-6	-43.701828
1.53175E-6	-43.380927
1.531795E-6	-43.121145
1.53184E-6	-42.994693
1.531885E-6	-42.96107
1.53193E-6	-42.997291
1.531975E-6	-42.981731
1.53202E-6	-42.994693
1.532065E-6	-43.007695
1.53211E-6	-43.23215
1.532155E-6	-43.595186
1.5322E-6	-43.859469
1.532245E-6	-43.896593
1.53229E-6	-43.952341
1.532335E-6	-43.941565
1.53238E-6	-43.945872
1.532425E-6	-43.943718
1.53247E-6	-43.858413
1.532515E-6	-43.620102
1.53256E-6	-43.267947
1.532605E-6	-43.079466
1.53265E-6	-43.100699
1.532695E-6	-43.061851
1.53274E-6	-43.060094
1.532785E-6	-43.053948
1.53283E-6	-43.051317
1.532875E-6	-43.19302
1.53292E-6	-43.467875
1.532965E-6	-43.829997
1.53301E-6	-43.959901
1.533055E-6	-43.984832
1.5331E-6	-43.970723
1.533145E-6	-44.009908
1.53319E-6	-43.990271
1.533235E-6	-43.972891
1.53328E-6	-43.792395
1.533325E-6	-43.533023
1.53337E-6	-43.279946
1.533415E-6	-43.196645
1.53346E-6	-43.187588
1.533505E-6	-43.178549
1.53355E-6	-43.166827
1.533595E-6	-43.209357
1.53364E-6	-43.263341
1.533685E-6	-43.429441
1.53373E-6	-43.76234
1.533775E-6	-43.95882
1.53382E-6	-43.966391
1.533865E-6	-44.025242
1.53391E-6	-44.031831
1.533955E-6	-44.023048
1.534E-6	-44.005536
1.534045E-6	-43.908326
1.53409E-6	-43.717133
1.534135E-6	-43.454384
1.53418E-6	-43.360165
1.534225E-6	-43.299398
1.53427E-6	-43.299398
1.534315E-6	-43.279946
1.53436E-6	-43.345128
1.534405E-6	-43.361107
1.53445E-6	-43.414163
1.534495E-6	-43.694704
1.53454E-6	-43.889143
1.534585E-6	-43.981572
1.53463E-6	-44.017568
1.534675E-6	-44.024145
1.53472E-6	-44.016473
1.534765E-6	-44.018664
1.53481E-6	-43.959901
1.534855E-6	-43.868985
1.5349E-6	-43.642148
1.534945E-6	-43.424661
1.53499E-6	-43.381873
1.535035E-6	-43.397038
1.53508E-6	-43.37431
1.535125E-6	-43.367704
1.53517E-6	-43.377145
1.535215E-6	-43.46884
1.53526E-6	-43.589227
1.535305E-6	-43.823707
1.53535E-6	-43.959901
1.535395E-6	-44.024145
1.53544E-6	-44.002261
1.535485E-6	-44.017568
1.53553E-6	-43.989183
1.535575E-6	-43.995717
1.53562E-6	-43.957739
1.535665E-6	-43.743789
1.53571E-6	-43.540867
1.535755E-6	-43.426573
1.5358E-6	-43.42275
1.535845E-6	-43.419886
1.53589E-6	-43.411304
1.535935E-6	-43.426573
1.53598E-6	-43.410352
1.536025E-6	-43.531064
1.53607E-6	-43.683533
1.536115E-6	-43.866868
1.53616E-6	-43.929741
1.536205E-6	-43.926522
1.53625E-6	-43.926522
1.536295E-6	-43.922234
1.53634E-6	-43.905123
1.536385E-6	-43.907258
1.53643E-6	-43.763373
1.536475E-6	-43.601153
1.53652E-6	-43.445734
1.536565E-6	-43.396089
1.53661E-6	-43.36959
1.536655E-6	-43.406544
1.5367E-6	-43.394191
1.536745E-6	-43.348883
1.53679E-6	-43.406544
1.536835E-6	-43.524214
1.53688E-6	-43.711004
1.536925E-6	-43.834195
1.53697E-6	-43.810111
1.537015E-6	-43.785121
1.53706E-6	-43.799681
1.537105E-6	-43.831046
1.53715E-6	-43.809067
1.537195E-6	-43.761307
1.53724E-6	-43.590219
1.537285E-6	-43.419886
1.53733E-6	-43.34419
1.537375E-6	-43.301255
1.53742E-6	-43.314277
1.537465E-6	-43.311484
1.53751E-6	-43.311484
1.537555E-6	-43.302184
1.5376E-6	-43.386607
1.537645E-6	-43.536943
1.53769E-6	-43.680492
1.537735E-6	-43.73557
1.53778E-6	-43.712025
1.537825E-6	-43.714067
1.53787E-6	-43.717133
1.537915E-6	-43.712025
1.53796E-6	-43.733517
1.538005E-6	-43.597174
1.53805E-6	-43.423706
1.538095E-6	-43.290124
1.53814E-6	-43.240385
1.538185E-6	-43.243133
1.53823E-6	-43.224843
1.538275E-6	-43.256901
1.53832E-6	-43.245883
1.538365E-6	-43.244966
1.53841E-6	-43.3762
1.538455E-6	-43.531064
1.5385E-6	-43.656235
1.538545E-6	-43.661277
1.53859E-6	-43.666326
1.538635E-6	-43.67138
1.53868E-6	-43.666326
1.538725E-6	-43.664306
1.53877E-6	-43.595186
1.538815E-6	-43.514448
1.53886E-6	-43.309622
1.538905E-6	-43.228495
1.53895E-6	-43.223018
1.538995E-6	-43.220282
1.53904E-6	-43.251389
1.539085E-6	-43.203904
1.53913E-6	-43.22393
1.539175E-6	-43.304042
1.53922E-6	-43.450538
1.539265E-6	-43.575355
1.53931E-6	-43.65926
1.539355E-6	-43.685562
1.5394E-6	-43.684548
1.539445E-6	-43.681505
1.53949E-6	-43.685562
1.539535E-6	-43.686577
1.53958E-6	-43.579314
1.539625E-6	-43.417977
1.53967E-6	-43.242217
1.539715E-6	-43.244966
1.53976E-6	-43.224843
1.539805E-6	-43.219371
1.53985E-6	-43.208448
1.539895E-6	-43.216638
1.53994E-6	-43.244049
1.539985E-6	-43.390397
1.54003E-6	-43.518352
1.540075E-6	-43.643152
1.54012E-6	-43.693688
1.540165E-6	-43.7202
1.54021E-6	-43.697756
1.540255E-6	-43.713046
1.5403E-6	-43.699791
1.540345E-6	-43.652205
1.54039E-6	-43.508599
1.540435E-6	-43.37431
1.54048E-6	-43.238553
1.540525E-6	-43.23215
1.54057E-6	-43.236723
1.540615E-6	-43.226668
1.54066E-6	-43.240385
1.540705E-6	-43.224843
1.54075E-6	-43.314277
1.540795E-6	-43.501785
1.54084E-6	-43.651199
1.540885E-6	-43.697756
1.54093E-6	-43.721223
1.540975E-6	-43.761307
1.54102E-6	-43.768541
1.541065E-6	-43.758211
1.54111E-6	-43.743789
1.541155E-6	-43.660268
1.5412E-6	-43.471737
1.541245E-6	-43.338566
1.54129E-6	-43.267026
1.541335E-6	-43.23215
1.54138E-6	-43.234893
1.541425E-6	-43.271635
1.54147E-6	-43.225756
1.541515E-6	-43.292904
1.54156E-6	-43.379981
1.541605E-6	-43.589227
1.54165E-6	-43.755116
1.541695E-6	-43.826851
1.54174E-6	-43.810111
1.541785E-6	-43.831046
1.54183E-6	-43.820566
1.541875E-6	-43.820566
1.54192E-6	-43.763373
1.541965E-6	-43.655227
1.54201E-6	-43.469805
1.542055E-6	-43.31987
1.5421E-6	-43.304972
1.542145E-6	-43.265183
1.54219E-6	-43.244966
1.542235E-6	-43.291977
1.54228E-6	-43.308692
1.542325E-6	-43.350761
1.54237E-6	-43.49207
1.542415E-6	-43.687592
1.54246E-6	-43.842603
1.542505E-6	-43.856302
1.54255E-6	-43.880644
1.542595E-6	-43.871102
1.54264E-6	-43.859469
1.542685E-6	-43.861582
1.54273E-6	-43.831046
1.542775E-6	-43.670368
1.54282E-6	-43.448616
1.542865E-6	-43.368647
1.54291E-6	-43.331078
1.542955E-6	-43.364875
1.543E-6	-43.347005
1.543045E-6	-43.35452
1.54309E-6	-43.375255
1.543135E-6	-43.448616
1.54318E-6	-43.644157
1.543225E-6	-43.857357
1.54327E-6	-43.969639
1.543315E-6	-43.981572
1.54336E-6	-43.994627
1.543405E-6	-44.002261
1.54345E-6	-43.976144
1.543495E-6	-43.995717
1.54354E-6	-43.863696
1.543585E-6	-43.661277
1.54363E-6	-43.479472
1.543675E-6	-43.412257
1.54372E-6	-43.396089
1.543765E-6	-43.407495
1.54381E-6	-43.438059
1.543855E-6	-43.458235
1.5439E-6	-43.463052
1.543945E-6	-43.589227
1.54399E-6	-43.864753
1.544035E-6	-44.043936
1.54408E-6	-44.109445
1.544125E-6	-44.118404
1.54417E-6	-44.081566
1.544215E-6	-44.090468
1.54426E-6	-44.100504
1.544305E-6	-44.069356
1.54435E-6	-43.92545
1.544395E-6	-43.701828
1.54444E-6	-43.544795
1.544485E-6	-43.536943
1.54453E-6	-43.552661
1.544575E-6	-43.559555
1.54462E-6	-43.570411
1.544665E-6	-43.559555
1.54471E-6	-43.606131
1.544755E-6	-43.774751
1.5448E-6	-44.001169
1.544845E-6	-44.166878
1.54489E-6	-44.185055
1.544935E-6	-44.195312
1.54498E-6	-44.173686
1.545025E-6	-44.069356
1.54507E-6	-43.451499
1.545115E-6	-36.685727
1.54516E-6	-25.683147
1.545205E-6	-20.152027
1.54525E-6	-17.94525
1.545295E-6	-17.401673
1.54534E-6	-17.337683
1.545385E-6	-17.290884
1.54543E-6	-17.32359
1.545475E-6	-17.703182
1.54552E-6	-19.605859
1.545565E-6	-24.502613
1.54561E-6	-33.719177
1.545655E-6	-41.237822
1.5457E-6	-43.623102
1.545745E-6	-44.145393
1.54579E-6	-44.275931
1.545835E-6	-44.314463
1.54588E-6	-44.317983
1.545925E-6	-44.250432
1.54597E-6	-44.031831
1.546015E-6	-43.821613
1.54606E-6	-43.745846
1.546105E-6	-43.748934
1.54615E-6	-43.76234
1.546195E-6	-43.748934
1.54624E-6	-43.752024
1.546285E-6	-43.768541
1.54633E-6	-43.890206
1.546375E-6	-44.127382
1.54642E-6	-44.312118
1.546465E-6	-44.378261
1.54651E-6	-44.375882
1.546555E-6	-44.385408
1.5466E-6	-44.362817
1.546645E-6	-44.112802
1.54669E-6	-42.435921
1.546735E-6	-30.579423
1.54678E-6	-22.197547
1.546825E-6	-18.761484
1.54687E-6	-17.652297
1.546915E-6	-17.449688
1.54696E-6	-17.423214
1.547005E-6	-17.408842
1.54705E-6	-17.539941
1.547095E-6	-18.613816
1.54714E-6	-21.994204
1.547185E-6	-29.476909
1.54723E-6	-39.240882
1.547275E-6	-43.181259
1.54732E-6	-44.164612
1.547365E-6	-44.388986
1.54741E-6	-44.444219
1.547455E-6	-44.453897
1.5475E-6	-44.415314
1.547545E-6	-44.244658
1.54759E-6	-44.019759
1.547635E-6	-43.897658
1.54768E-6	-43.870043
1.547725E-6	-43.862639
1.54777E-6	-43.856302
1.547815E-6	-43.853137
1.54786E-6	-43.861582
1.547905E-6	-43.92545
1.54795E-6	-44.102737
1.547995E-6	-44.333269
1.54804E-6	-44.451476
1.548085E-6	-44.473318
1.54813E-6	-44.491604
1.548175E-6	-44.473318
1.54822E-6	-44.361631
1.548265E-6	-43.680492
1.54831E-6	-36.466609
1.548355E-6	-25.036239
1.5484E-6	-19.880069
1.548445E-6	-17.864822
1.54849E-6	-17.440043
1.548535E-6	-17.344747
1.54858E-6	-17.33298
1.548625E-6	-17.340036
1.54867E-6	-17.780644
1.548715E-6	-19.812995
1.54876E-6	-25.004504
1.548805E-6	-34.544455
1.54885E-6	-41.622853
1.548895E-6	-43.876401
1.54894E-6	-44.360445
1.548985E-6	-44.45632
1.54903E-6	-44.479405
1.549075E-6	-44.466025
1.54912E-6	-44.384216
1.549165E-6	-44.179366
1.54921E-6	-43.976144
1.549255E-6	-43.870043
1.5493E-6	-43.846813
1.549345E-6	-43.847867
1.54939E-6	-43.846813
1.549435E-6	-43.847867
1.54948E-6	-43.865811
1.549525E-6	-43.969639
1.54957E-6	-44.17823
1.549615E-6	-44.378261
1.54966E-6	-44.449056
1.549705E-6	-44.470885
1.54975E-6	-44.46117
1.549795E-6	-44.417716
1.54984E-6	-44.164612
1.549885E-6	-42.654402
1.54993E-6	-31.067377
1.549975E-6	-22.348532
1.55002E-6	-18.674202
1.550065E-6	-17.452103
1.55011E-6	-17.23768
1.550155E-6	-17.203331
1.5502E-6	-17.198771
1.550245E-6	-17.276942
1.55029E-6	-18.041003
1.550335E-6	-20.886826
1.55038E-6	-27.592012
1.550425E-6	-37.862167
1.55047E-6	-42.716462
1.550515E-6	-44.058285
1.55056E-6	-44.334447
1.550605E-6	-44.394956
1.55065E-6	-44.397346
1.550695E-6	-44.392567
1.55074E-6	-44.255057
1.550785E-6	-44.000078
1.55083E-6	-43.827899
1.550875E-6	-43.766473
1.55092E-6	-43.747905
1.550965E-6	-43.747905
1.55101E-6	-43.754085
1.551055E-6	-43.754085
1.5511E-6	-43.784083
1.551145E-6	-43.930815
1.55119E-6	-44.177093
1.551235E-6	-44.360445
1.55128E-6	-44.404524
1.551325E-6	-44.396151
1.55137E-6	-44.387793
1.551415E-6	-44.380642
1.55146E-6	-44.384216
1.551505E-6	-44.345064
1.55155E-6	-44.162346
1.551595E-6	-43.908326
1.55164E-6	-43.737623
1.551685E-6	-43.690639
1.55173E-6	-43.686577
1.551775E-6	-43.692671
1.55182E-6	-43.685562
1.551865E-6	-43.677452
1.55191E-6	-43.726341
1.551955E-6	-43.904056
1.552E-6	-44.181641
1.552045E-6	-44.330913
1.55209E-6	-44.35926
1.552135E-6	-44.356891
1.55218E-6	-44.345064
1.552225E-6	-44.354523
1.55227E-6	-44.362817
1.552315E-6	-44.293403
1.55236E-6	-44.081566
1.552405E-6	-43.809067
1.55245E-6	-43.665315
1.552495E-6	-43.641143
1.55254E-6	-43.640139
1.552585E-6	-43.637127
1.55263E-6	-43.632113
1.552675E-6	-43.630109
1.55272E-6	-43.695721
1.552765E-6	-43.91688
1.55281E-6	-44.19189
1.552855E-6	-44.299243
1.5529E-6	-44.326207
1.552945E-6	-44.309774
1.55299E-6	-44.312118
1.553035E-6	-44.315636
1.55308E-6	-44.32268
1.553125E-6	-44.23083
1.55317E-6	-43.988095
1.553215E-6	-43.736596
1.55326E-6	-43.616106
1.553305E-6	-43.601153
1.55335E-6	-43.593198
1.553395E-6	-43.589227
1.55344E-6	-43.575355
1.553485E-6	-43.585259
1.55353E-6	-43.678465
1.553575E-6	-43.926522
1.55362E-6	-44.164612
1.553665E-6	-44.284076
1.55371E-6	-44.293403
1.553755E-6	-44.293403
1.5538E-6	-44.309774
1.553845E-6	-44.307432
1.55389E-6	-44.293403
1.553935E-6	-44.188471
1.55398E-6	-43.928668
1.554025E-6	-43.690639
1.55407E-6	-43.586251
1.554115E-6	-43.567448
1.55416E-6	-43.565473
1.554205E-6	-43.553645
1.55425E-6	-43.553645
1.554295E-6	-43.559555
1.55434E-6	-43.67644
1.554385E-6	-43.932963
1.55443E-6	-44.173686
1.554475E-6	-44.273607
1.55452E-6	-44.292236
1.554565E-6	-44.307432
1.55461E-6	-44.300412
1.554655E-6	-44.298074
1.5547E-6	-44.275931
1.554745E-6	-44.148778
1.55479E-6	-43.87428
1.554835E-6	-43.652205
1.55488E-6	-43.553645
1.554925E-6	-43.525192
1.55497E-6	-43.510548
1.555015E-6	-43.512498
1.55506E-6	-43.505678
1.555105E-6	-43.534982
1.55515E-6	-43.669357
1.555195E-6	-43.935111
1.55524E-6	-44.174821
1.555285E-6	-44.253901
1.55533E-6	-44.272445
1.555375E-6	-44.277094
1.55542E-6	-44.288737
1.555465E-6	-44.27942
1.55551E-6	-44.255057
1.555555E-6	-44.112802
1.5556E-6	-43.846813
1.555645E-6	-43.620102
1.55569E-6	-43.534982
1.555735E-6	-43.506651
1.55578E-6	-43.500813
1.555825E-6	-43.490129
1.55587E-6	-43.507625
1.555915E-6	-43.534982
1.55596E-6	-43.67138
1.556005E-6	-43.937261
1.55605E-6	-44.173686
1.556095E-6	-44.250432
1.55614E-6	-44.285241
1.556185E-6	-44.287571
1.55623E-6	-44.273607
1.556275E-6	-44.271284
1.55632E-6	-44.249277
1.556365E-6	-44.10609
1.55641E-6	-43.827899
1.556455E-6	-43.614109
1.5565E-6	-43.520305
1.556545E-6	-43.494982
1.55659E-6	-43.488189
1.556635E-6	-43.49304
1.55668E-6	-43.496925
1.556725E-6	-43.52617
1.55677E-6	-43.661277
1.556815E-6	-43.945872
1.55686E-6	-44.179366
1.556905E-6	-44.258529
1.55695E-6	-44.29107
1.556995E-6	-44.289903
1.55704E-6	-44.29107
1.557085E-6	-44.268962
1.55713E-6	-44.249277
1.557175E-6	-44.102737
1.55722E-6	-43.827899
1.557265E-6	-43.601153
1.55731E-6	-43.513473
1.557355E-6	-43.503731
1.5574E-6	-43.503731
1.557445E-6	-43.511523
1.55749E-6	-43.510548
1.557535E-6	-43.540867
1.55758E-6	-43.689623
1.557625E-6	-43.970723
1.55767E-6	-44.207882
1.557715E-6	-44.295738
1.55776E-6	-44.309774
1.557805E-6	-44.309774
1.55785E-6	-44.307432
1.557895E-6	-44.294571
1.55794E-6	-44.273607
1.557985E-6	-44.137504
1.55803E-6	-43.841551
1.558075E-6	-43.618104
1.55812E-6	-43.536943
1.558165E-6	-43.522259
1.55821E-6	-43.533023
1.558255E-6	-43.540867
1.5583E-6	-43.552661
1.558345E-6	-43.571399
1.55839E-6	-43.715089
1.558435E-6	-44.004444
1.55848E-6	-44.244658
1.558525E-6	-44.321505
1.55857E-6	-44.335625
1.558615E-6	-44.329736
1.55866E-6	-44.319157
1.558705E-6	-44.332091
1.55875E-6	-44.315636
1.558795E-6	-44.17823
1.55884E-6	-43.889143
1.558885E-6	-43.668346
1.55893E-6	-43.601153
1.558975E-6	-43.595186
1.55902E-6	-43.600158
1.559065E-6	-43.602148
1.55911E-6	-43.614109
1.559155E-6	-43.628106
1.5592E-6	-43.778896
1.559245E-6	-44.06271
1.55929E-6	-44.295738
1.559335E-6	-44.36875
1.55938E-6	-44.375882
1.559425E-6	-44.383025
1.55947E-6	-44.379452
1.559515E-6	-44.388986
1.55956E-6	-44.378261
1.559605E-6	-44.23083
1.55965E-6	-43.948027
1.559695E-6	-43.737623
1.55974E-6	-43.668346
1.559785E-6	-43.675427
1.55983E-6	-43.681505
1.559875E-6	-43.685562
1.55992E-6	-43.687592
1.559965E-6	-43.711004
1.56001E-6	-43.861582
1.560055E-6	-44.146521
1.5601E-6	-44.366376
1.560145E-6	-44.432152
1.56019E-6	-44.432152
1.560235E-6	-44.436975
1.56028E-6	-44.449056
1.560325E-6	-44.45632
1.56037E-6	-44.434563
1.560415E-6	-44.292236
1.56046E-6	-44.03953
1.560505E-6	-43.832095
1.56055E-6	-43.769576
1.560595E-6	-43.78097
1.56064E-6	-43.774751
1.560685E-6	-43.778896
1.56073E-6	-43.773716
1.560775E-6	-43.808023
1.56082E-6	-43.943718
1.560865E-6	-44.202164
1.56091E-6	-44.409317
1.560955E-6	-44.474535
1.561E-6	-44.478187
1.561045E-6	-44.476969
1.56109E-6	-44.492826
1.561135E-6	-44.492826
1.56118E-6	-44.4855
1.561225E-6	-44.36875
1.56127E-6	-44.12289
1.561315E-6	-43.923306
1.56136E-6	-43.87534
1.561405E-6	-43.876401
1.56145E-6	-43.878522
1.561495E-6	-43.876401
1.56154E-6	-43.867926
1.561585E-6	-43.905123
1.56163E-6	-44.017568
1.561675E-6	-44.245812
1.56172E-6	-44.440596
1.561765E-6	-44.502613
1.56181E-6	-44.509967
1.561855E-6	-44.527177
1.5619E-6	-44.534573
1.561945E-6	-44.535807
1.56199E-6	-44.516106
1.562035E-6	-44.420119
1.56208E-6	-44.213608
1.562125E-6	-44.031831
1.56217E-6	-43.976144
1.562215E-6	-43.9545
1.56226E-6	-43.955579
1.562305E-6	-43.945872
1.56235E-6	-43.940488
1.562395E-6	-43.970723
1.56244E-6	-44.063817
1.562485E-6	-44.262004
1.56253E-6	-44.445428
1.562575E-6	-44.521023
1.56262E-6	-44.540747
1.562665E-6	-44.55312
1.56271E-6	-44.561802
1.562755E-6	-44.554359
1.5628E-6	-44.548166
1.562845E-6	-44.462383
1.56289E-6	-44.286406
1.562935E-6	-44.111683
1.56298E-6	-44.035129
1.563025E-6	-44.024145
1.56307E-6	-44.014283
1.563115E-6	-44.016473
1.56316E-6	-44.027437
1.563205E-6	-44.04614
1.56325E-6	-44.108326
1.563295E-6	-44.287571
1.56334E-6	-44.470885
1.563385E-6	-44.554359
1.56343E-6	-44.57299
