Wavelength (nm)	Power (dBm)
1.525E-6	-48.814046
1.525045E-6	-48.671002
1.52509E-6	-48.576105
1.525135E-6	-48.486301
1.52518E-6	-48.398317
1.525225E-6	-48.285661
1.52527E-6	-48.17015
1.525315E-6	-48.06319
1.52536E-6	-47.964232
1.525405E-6	-47.85421
1.52545E-6	-47.718564
1.525495E-6	-47.587026
1.52554E-6	-47.408842
1.525585E-6	-47.263044
1.52563E-6	-47.151183
1.525675E-6	-47.039933
1.52572E-6	-46.922901
1.525765E-6	-46.804776
1.52581E-6	-46.712128
1.525855E-6	-46.657474
1.5259E-6	-46.627405
1.525945E-6	-46.617428
1.52599E-6	-46.561977
1.526035E-6	-46.478175
1.52608E-6	-46.397854
1.526125E-6	-46.322715
1.52617E-6	-46.245193
1.526215E-6	-46.138579
1.52626E-6	-45.99462
1.526305E-6	-45.826944
1.52635E-6	-45.673513
1.526395E-6	-45.542402
1.52644E-6	-45.465288
1.526485E-6	-45.37153
1.52653E-6	-45.282683
1.526575E-6	-45.231684
1.52662E-6	-45.15985
1.526665E-6	-45.204247
1.52671E-6	-45.218666
1.526755E-6	-45.202808
1.5268E-6	-45.198493
1.526845E-6	-45.15131
1.52689E-6	-45.064026
1.526935E-6	-45.000381
1.52698E-6	-44.967542
1.527025E-6	-44.793855
1.52707E-6	-44.653394
1.527115E-6	-44.4855
1.52716E-6	-44.348608
1.527205E-6	-44.30392
1.52725E-6	-44.197595
1.527295E-6	-44.137504
1.52734E-6	-44.103855
1.527385E-6	-44.08824
1.52743E-6	-44.130753
1.527475E-6	-44.267802
1.52752E-6	-44.383025
1.527565E-6	-44.364003
1.52761E-6	-44.335625
1.527655E-6	-44.309774
1.5277E-6	-44.266642
1.527745E-6	-44.218194
1.52779E-6	-44.134127
1.527835E-6	-44.013189
1.52788E-6	-43.801765
1.527925E-6	-43.619103
1.52797E-6	-43.549709
1.528015E-6	-43.533023
1.52806E-6	-43.529106
1.528105E-6	-43.515424
1.52815E-6	-43.542831
1.528195E-6	-43.595186
1.52824E-6	-43.76544
1.528285E-6	-43.944795
1.52833E-6	-43.969639
1.528375E-6	-44.036229
1.52842E-6	-44.001169
1.528465E-6	-43.984832
1.52851E-6	-43.975059
1.528555E-6	-43.985919
1.5286E-6	-43.843655
1.528645E-6	-43.595186
1.52869E-6	-43.439977
1.528735E-6	-43.379036
1.52878E-6	-43.371478
1.528825E-6	-43.372422
1.52887E-6	-43.387554
1.528915E-6	-43.387554
1.52896E-6	-43.423706
1.529005E-6	-43.612113
1.52905E-6	-43.87534
1.529095E-6	-44.009908
1.52914E-6	-44.052761
1.529185E-6	-44.019759
1.52923E-6	-44.049449
1.529275E-6	-44.077122
1.52932E-6	-44.073792
1.529365E-6	-43.970723
1.52941E-6	-43.748934
1.529455E-6	-43.5164
1.5295E-6	-43.445734
1.529545E-6	-43.460161
1.52959E-6	-43.470771
1.529635E-6	-43.48722
1.52968E-6	-43.48722
1.529725E-6	-43.494982
1.52977E-6	-43.662287
1.529815E-6	-43.971807
1.52986E-6	-44.151037
1.529905E-6	-44.22968
1.52995E-6	-44.219341
1.529995E-6	-44.248122
1.53004E-6	-44.249277
1.530085E-6	-44.275931
1.53013E-6	-44.237739
1.530175E-6	-44.023048
1.53022E-6	-43.767507
1.530265E-6	-43.629107
1.53031E-6	-43.643152
1.530355E-6	-43.65422
1.5304E-6	-43.658251
1.530445E-6	-43.635121
1.53049E-6	-43.656235
1.530535E-6	-43.788237
1.53058E-6	-44.051656
1.530625E-6	-44.316809
1.53067E-6	-44.385408
1.530715E-6	-44.410516
1.53076E-6	-44.394956
1.530805E-6	-44.428539
1.53085E-6	-44.444219
1.530895E-6	-44.443011
1.53094E-6	-44.271284
1.530985E-6	-44.024145
1.53103E-6	-43.829997
1.531075E-6	-43.77786
1.53112E-6	-43.774751
1.531165E-6	-43.791355
1.53121E-6	-43.768541
1.531255E-6	-43.811155
1.5313E-6	-43.861582
1.531345E-6	-44.143137
1.53139E-6	-44.366376
1.531435E-6	-44.518564
1.53148E-6	-44.558079
1.531525E-6	-44.564286
1.53157E-6	-44.597957
1.531615E-6	-44.599209
1.53166E-6	-44.594203
1.531705E-6	-44.479405
1.53175E-6	-44.24235
1.531795E-6	-44.026339
1.53184E-6	-43.91474
1.531885E-6	-43.929741
1.53193E-6	-43.915809
1.531975E-6	-43.950184
1.53202E-6	-43.943718
1.532065E-6	-43.951262
1.53211E-6	-44.156688
1.532155E-6	-44.414114
1.5322E-6	-44.606729
1.532245E-6	-44.677554
1.53229E-6	-44.661009
1.532335E-6	-44.712118
1.53238E-6	-44.72499
1.532425E-6	-44.704413
1.53247E-6	-44.671183
1.532515E-6	-44.478187
1.53256E-6	-44.217047
1.532605E-6	-44.086014
1.53265E-6	-44.018664
1.532695E-6	-44.064924
1.53274E-6	-44.031831
1.532785E-6	-44.05497
1.53283E-6	-44.081566
1.532875E-6	-44.213608
1.53292E-6	-44.453897
1.532965E-6	-44.689045
1.53301E-6	-44.803032
1.533055E-6	-44.789927
1.5331E-6	-44.806972
1.533145E-6	-44.859838
1.53319E-6	-44.845236
1.533235E-6	-44.825402
1.53328E-6	-44.704413
1.533325E-6	-44.483061
1.53337E-6	-44.319157
1.533415E-6	-44.234283
1.53346E-6	-44.223933
1.533505E-6	-44.222785
1.53355E-6	-44.24235
1.533595E-6	-44.231981
1.53364E-6	-44.308603
1.533685E-6	-44.473318
1.53373E-6	-44.70313
1.533775E-6	-44.89455
1.53382E-6	-44.940365
1.533865E-6	-44.944431
1.53391E-6	-44.962093
1.533955E-6	-44.971634
1.534E-6	-44.983931
1.534045E-6	-44.930893
1.53409E-6	-44.766438
1.534135E-6	-44.517335
1.53418E-6	-44.455108
1.534225E-6	-44.411715
1.53427E-6	-44.381833
1.534315E-6	-44.409317
1.53436E-6	-44.417716
1.534405E-6	-44.433357
1.53445E-6	-44.539511
1.534495E-6	-44.771647
1.53454E-6	-44.963455
1.534585E-6	-45.022413
1.53463E-6	-45.094797
1.534675E-6	-45.100415
1.53472E-6	-45.084982
1.534765E-6	-45.079384
1.53481E-6	-45.055671
1.534855E-6	-44.947143
1.5349E-6	-44.739193
1.534945E-6	-44.599209
1.53499E-6	-44.543219
1.535035E-6	-44.579219
1.53508E-6	-44.595454
1.535125E-6	-44.571746
1.53517E-6	-44.587953
1.535215E-6	-44.625587
1.53526E-6	-44.761235
1.535305E-6	-45.005879
1.53535E-6	-45.147046
1.535395E-6	-45.148467
1.53544E-6	-45.152732
1.535485E-6	-45.147046
1.53553E-6	-45.125788
1.535575E-6	-45.134278
1.53562E-6	-45.104634
1.535665E-6	-44.947143
1.53571E-6	-44.782084
1.535755E-6	-44.677554
1.5358E-6	-44.658469
1.535845E-6	-44.659739
1.53589E-6	-44.664821
1.535935E-6	-44.687766
1.53598E-6	-44.70698
1.536025E-6	-44.775558
1.53607E-6	-44.944431
1.536115E-6	-45.120137
1.53616E-6	-45.179844
1.536205E-6	-45.191311
1.53625E-6	-45.181276
1.536295E-6	-45.187007
1.53634E-6	-45.185574
1.536385E-6	-45.161275
1.53643E-6	-45.079384
1.536475E-6	-44.871822
1.53652E-6	-44.758636
1.536565E-6	-44.704413
1.53661E-6	-44.740487
1.536655E-6	-44.70313
1.5367E-6	-44.709548
1.536745E-6	-44.686488
1.53679E-6	-44.726279
1.536835E-6	-44.869156
1.53688E-6	-45.021033
1.536925E-6	-45.144205
1.53697E-6	-45.15985
1.537015E-6	-45.141367
1.53706E-6	-45.131446
1.537105E-6	-45.128616
1.53715E-6	-45.134278
1.537195E-6	-45.089186
1.53724E-6	-44.952574
1.537285E-6	-44.782084
1.53733E-6	-44.705696
1.537375E-6	-44.687766
1.53742E-6	-44.67373
1.537465E-6	-44.681381
1.53751E-6	-44.649592
1.537555E-6	-44.664821
1.5376E-6	-44.722412
1.537645E-6	-44.903943
1.53769E-6	-45.041782
1.537735E-6	-45.093393
1.53778E-6	-45.120137
1.537825E-6	-45.104634
1.53787E-6	-45.094797
1.537915E-6	-45.079384
1.53796E-6	-45.097605
1.538005E-6	-45.001755
1.53805E-6	-44.826721
1.538095E-6	-44.683934
1.53814E-6	-44.636941
1.538185E-6	-44.641997
1.53823E-6	-44.640733
1.538275E-6	-44.619292
1.53832E-6	-44.638205
1.538365E-6	-44.645793
1.53841E-6	-44.791236
1.538455E-6	-44.920093
1.5385E-6	-45.032087
1.538545E-6	-45.066814
1.53859E-6	-45.062632
1.538635E-6	-45.059846
1.53868E-6	-45.07519
1.538725E-6	-45.058454
1.53877E-6	-45.004504
1.538815E-6	-44.869156
1.53886E-6	-44.701848
1.538905E-6	-44.634416
1.53895E-6	-44.626847
1.538995E-6	-44.585456
1.53904E-6	-44.57299
1.539085E-6	-44.576726
1.53913E-6	-44.587953
1.539175E-6	-44.67373
1.53922E-6	-44.833324
1.539265E-6	-44.992148
1.53931E-6	-45.043169
1.539355E-6	-45.016894
1.5394E-6	-45.059846
1.539445E-6	-45.058454
1.53949E-6	-45.036239
1.539535E-6	-45.05428
1.53958E-6	-44.949858
1.539625E-6	-44.758636
1.53967E-6	-44.638205
1.539715E-6	-44.601714
1.53976E-6	-44.599209
1.539805E-6	-44.600462
1.53985E-6	-44.565528
1.539895E-6	-44.594203
1.53994E-6	-44.600462
1.539985E-6	-44.710833
1.54003E-6	-44.887853
1.540075E-6	-45.005879
1.54012E-6	-45.043169
1.540165E-6	-45.064026
1.54021E-6	-45.05289
1.540255E-6	-45.073793
1.5403E-6	-45.048721
1.540345E-6	-45.005879
1.54039E-6	-44.859838
1.540435E-6	-44.689045
1.54048E-6	-44.604221
1.540525E-6	-44.589202
1.54057E-6	-44.560561
1.540615E-6	-44.580465
1.54066E-6	-44.551881
1.540705E-6	-44.570502
1.54075E-6	-44.628108
1.540795E-6	-44.788619
1.54084E-6	-44.951215
1.540885E-6	-45.05428
1.54093E-6	-45.058454
1.540975E-6	-45.072396
1.54102E-6	-45.07519
1.541065E-6	-45.076587
1.54111E-6	-45.059846
1.541155E-6	-44.996263
1.5412E-6	-44.813545
1.541245E-6	-44.6572
1.54129E-6	-44.563044
1.541335E-6	-44.570502
1.54138E-6	-44.560561
1.541425E-6	-44.565528
1.54147E-6	-44.548166
1.541515E-6	-44.592952
1.54156E-6	-44.664821
1.541605E-6	-44.877159
1.54165E-6	-45.027938
1.541695E-6	-45.077985
1.54174E-6	-45.097605
1.541785E-6	-45.090588
1.54183E-6	-45.093393
1.541875E-6	-45.086383
1.54192E-6	-45.065419
1.541965E-6	-44.93495
1.54201E-6	-44.762535
1.542055E-6	-44.607984
1.5421E-6	-44.555599
1.542145E-6	-44.549404
1.54219E-6	-44.560561
1.542235E-6	-44.57299
1.54228E-6	-44.558079
1.542325E-6	-44.618034
1.54237E-6	-44.735315
1.542415E-6	-44.932245
1.54246E-6	-45.0515
1.542505E-6	-45.137112
1.54255E-6	-45.114493
1.542595E-6	-45.09199
1.54264E-6	-45.131446
1.542685E-6	-45.101821
1.54273E-6	-45.077985
1.542775E-6	-44.913356
1.54282E-6	-44.727569
1.542865E-6	-44.591702
1.54291E-6	-44.566771
1.542955E-6	-44.577972
1.543E-6	-44.61175
1.543045E-6	-44.590452
1.54309E-6	-44.626847
1.543135E-6	-44.687766
1.54318E-6	-44.862498
1.543225E-6	-45.05428
1.54327E-6	-45.132862
1.543315E-6	-45.172693
1.54336E-6	-45.155578
1.543405E-6	-45.155578
1.54345E-6	-45.169836
1.543495E-6	-45.161275
1.54354E-6	-45.07519
1.543585E-6	-44.881166
1.54363E-6	-44.704413
1.543675E-6	-44.619292
1.54372E-6	-44.618034
1.543765E-6	-44.644527
1.54381E-6	-44.631891
1.543855E-6	-44.636941
1.5439E-6	-44.668637
1.543945E-6	-44.799097
1.54399E-6	-45.004504
1.544035E-6	-45.197055
1.54408E-6	-45.22734
1.544125E-6	-45.228787
1.54417E-6	-45.259295
1.544215E-6	-45.215778
1.54426E-6	-45.218666
1.544305E-6	-45.236032
1.54435E-6	-45.066814
1.544395E-6	-44.849213
1.54444E-6	-44.715976
1.544485E-6	-44.680104
1.54453E-6	-44.692882
1.544575E-6	-44.701848
1.54462E-6	-44.709548
1.544665E-6	-44.696722
1.54471E-6	-44.748256
1.544755E-6	-44.907975
1.5448E-6	-45.164127
1.544845E-6	-45.26659
1.54489E-6	-45.31505
1.544935E-6	-45.279753
1.54498E-6	-45.269512
1.545025E-6	-45.185574
1.54507E-6	-44.599209
1.545115E-6	-38.210231
1.54516E-6	-27.090754
1.545205E-6	-21.599567
1.54525E-6	-19.314431
1.545295E-6	-18.797552
1.54534E-6	-18.706324
1.545385E-6	-18.674202
1.54543E-6	-18.664611
1.545475E-6	-19.048306
1.54552E-6	-20.939884
1.545565E-6	-25.802094
1.54561E-6	-34.851867
1.545655E-6	-42.388995
1.5457E-6	-44.726279
1.545745E-6	-45.214335
1.54579E-6	-45.323919
1.545835E-6	-45.362563
1.54588E-6	-45.374523
1.545925E-6	-45.297366
1.54597E-6	-45.087784
1.546015E-6	-44.890531
1.54606E-6	-44.824083
1.546105E-6	-44.824083
1.54615E-6	-44.825402
1.546195E-6	-44.820128
1.54624E-6	-44.812229
1.546285E-6	-44.825402
1.54633E-6	-44.943075
1.546375E-6	-45.162701
1.54642E-6	-45.352125
1.546465E-6	-45.410601
1.54651E-6	-45.424209
1.546555E-6	-45.427238
1.5466E-6	-45.43634
1.546645E-6	-45.4546
1.54669E-6	-45.431787
1.546735E-6	-45.295895
1.54678E-6	-45.073793
1.546825E-6	-44.917397
1.54687E-6	-44.869156
1.546915E-6	-44.863829
1.54696E-6	-44.863829
1.547005E-6	-44.863829
1.54705E-6	-44.861168
1.547095E-6	-44.897232
1.54714E-6	-45.057062
1.547185E-6	-45.270973
1.54723E-6	-45.424209
1.547275E-6	-45.4546
1.54732E-6	-45.462231
1.547365E-6	-45.489815
1.54741E-6	-45.49443
1.547455E-6	-45.477534
1.5475E-6	-45.433304
1.547545E-6	-45.278289
1.54759E-6	-45.065419
1.547635E-6	-44.93901
1.54768E-6	-44.899915
1.547725E-6	-44.88384
1.54777E-6	-44.87983
1.547815E-6	-44.898573
1.54786E-6	-44.907975
1.547905E-6	-44.972998
1.54795E-6	-45.141367
1.547995E-6	-45.349147
1.54804E-6	-45.456125
1.548085E-6	-45.50059
1.54813E-6	-45.519123
1.548175E-6	-45.537736
1.54822E-6	-45.516029
1.548265E-6	-45.505216
1.54831E-6	-45.443939
1.548355E-6	-45.263671
1.5484E-6	-45.0515
1.548445E-6	-44.964817
1.54849E-6	-44.92279
1.548535E-6	-44.910665
1.54858E-6	-44.91605
1.548625E-6	-44.92414
1.54867E-6	-44.94172
1.548715E-6	-45.010006
1.54876E-6	-45.197055
1.548805E-6	-45.400047
1.54885E-6	-45.49443
1.548895E-6	-45.540846
1.54894E-6	-45.54863
1.548985E-6	-45.545515
1.54903E-6	-45.533075
1.549075E-6	-45.503673
1.54912E-6	-45.43027
1.549165E-6	-45.241836
1.54921E-6	-45.036239
1.549255E-6	-44.949858
1.5493E-6	-44.929541
1.549345E-6	-44.903943
1.54939E-6	-44.913356
1.549435E-6	-44.929541
1.54948E-6	-44.940365
1.549525E-6	-45.041782
1.54957E-6	-45.247648
1.549615E-6	-45.437858
1.54966E-6	-45.520671
1.549705E-6	-45.543958
1.54975E-6	-45.52222
1.549795E-6	-45.479068
1.54984E-6	-45.244741
1.549885E-6	-43.851028
1.54993E-6	-32.730284
1.549975E-6	-23.76544
1.55002E-6	-20.064756
1.550065E-6	-18.807441
1.55011E-6	-18.601209
1.550155E-6	-18.551146
1.5502E-6	-18.53252
1.550245E-6	-18.588639
1.55029E-6	-19.336741
1.550335E-6	-22.214147
1.55038E-6	-28.843895
1.550425E-6	-39.041335
1.55047E-6	-43.815335
1.550515E-6	-45.130031
1.55056E-6	-45.421181
1.550605E-6	-45.466817
1.55065E-6	-45.485206
1.550695E-6	-45.472938
1.55074E-6	-45.338741
1.550785E-6	-45.111674
1.55083E-6	-44.93901
1.550875E-6	-44.870489
1.55092E-6	-44.858509
1.550965E-6	-44.866492
1.55101E-6	-44.873156
1.551055E-6	-44.866492
1.5511E-6	-44.889192
1.551145E-6	-45.040396
1.55119E-6	-45.279753
1.551235E-6	-45.443939
1.55128E-6	-45.495969
1.551325E-6	-45.505216
1.55137E-6	-45.488278
1.551415E-6	-45.482136
1.55146E-6	-45.482136
1.551505E-6	-45.456125
1.55155E-6	-45.281218
1.551595E-6	-45.034855
1.55164E-6	-44.873156
1.551685E-6	-44.824083
1.55173E-6	-44.826721
1.551775E-6	-44.838614
1.55182E-6	-44.828041
1.551865E-6	-44.816177
1.55191E-6	-44.843911
1.551955E-6	-45.03901
1.552E-6	-45.28855
1.552045E-6	-45.446982
1.55209E-6	-45.469876
1.552135E-6	-45.465288
1.55218E-6	-45.457651
1.552225E-6	-45.463759
1.55227E-6	-45.466817
1.552315E-6	-45.412111
1.55236E-6	-45.198493
1.552405E-6	-44.93901
1.55245E-6	-44.804345
1.552495E-6	-44.776862
1.55254E-6	-44.795165
1.552585E-6	-44.789927
1.55263E-6	-44.78339
1.552675E-6	-44.775558
1.55272E-6	-44.837291
1.552765E-6	-45.045944
1.55281E-6	-45.292956
1.552855E-6	-45.419668
1.5529E-6	-45.443939
1.552945E-6	-45.422695
1.55299E-6	-45.431787
1.553035E-6	-45.434821
1.55308E-6	-45.439378
1.553125E-6	-45.355105
1.55317E-6	-45.118725
1.553215E-6	-44.882503
1.55326E-6	-44.76774
1.553305E-6	-44.753443
1.55335E-6	-44.754741
1.553395E-6	-44.74178
1.55344E-6	-44.719837
1.553485E-6	-44.73144
1.55353E-6	-44.832003
1.553575E-6	-45.058454
1.55362E-6	-45.298836
1.553665E-6	-45.391022
1.55371E-6	-45.406075
1.553755E-6	-45.409092
1.5538E-6	-45.419668
1.553845E-6	-45.422695
1.55389E-6	-45.404567
1.553935E-6	-45.312097
1.55398E-6	-45.058454
1.554025E-6	-44.834646
1.55407E-6	-44.739193
1.554115E-6	-44.714689
1.55416E-6	-44.712118
1.554205E-6	-44.686488
1.55425E-6	-44.691602
1.554295E-6	-44.709548
1.55434E-6	-44.810914
1.554385E-6	-45.061239
1.55443E-6	-45.284149
1.554475E-6	-45.382014
1.55452E-6	-45.397037
1.554565E-6	-45.401554
1.55461E-6	-45.424209
1.554655E-6	-45.407583
1.5547E-6	-45.389519
1.554745E-6	-45.269512
1.55479E-6	-45.007254
1.554835E-6	-44.800408
1.55488E-6	-44.698003
1.554925E-6	-44.676279
1.55497E-6	-44.662279
1.555015E-6	-44.650859
1.55506E-6	-44.644527
1.555105E-6	-44.676279
1.55515E-6	-44.796475
1.555195E-6	-45.041782
1.55524E-6	-45.275361
1.555285E-6	-45.37602
1.55533E-6	-45.383514
1.555375E-6	-45.394028
1.55542E-6	-45.394028
1.555465E-6	-45.383514
1.55551E-6	-45.36107
1.555555E-6	-45.223001
1.5556E-6	-44.968906
1.555645E-6	-44.753443
1.55569E-6	-44.672456
1.555735E-6	-44.640733
1.55578E-6	-44.634416
1.555825E-6	-44.628108
1.55587E-6	-44.643262
1.555915E-6	-44.664821
1.55596E-6	-44.792545
1.556005E-6	-45.059846
1.55605E-6	-45.268051
1.556095E-6	-45.358086
1.55614E-6	-45.383514
1.556185E-6	-45.389519
1.55623E-6	-45.382014
1.556275E-6	-45.377518
1.55632E-6	-45.36107
1.556365E-6	-45.223001
1.55641E-6	-44.960732
1.556455E-6	-44.744369
1.5565E-6	-44.652126
1.556545E-6	-44.62055
1.55659E-6	-44.635678
1.556635E-6	-44.629369
1.55668E-6	-44.640733
1.556725E-6	-44.661009
1.55677E-6	-44.784697
1.556815E-6	-45.068209
1.55686E-6	-45.278289
1.556905E-6	-45.377518
1.55695E-6	-45.392525
1.556995E-6	-45.386516
1.55704E-6	-45.382014
1.557085E-6	-45.379016
1.55713E-6	-45.359578
1.557175E-6	-45.224447
1.55722E-6	-44.949858
1.557265E-6	-44.734023
1.55731E-6	-44.650859
1.557355E-6	-44.636941
1.5574E-6	-44.641997
1.557445E-6	-44.652126
1.55749E-6	-44.659739
1.557535E-6	-44.680104
1.55758E-6	-44.818811
1.557625E-6	-45.090588
1.55767E-6	-45.320961
1.557715E-6	-45.404567
1.55776E-6	-45.427238
1.557805E-6	-45.415132
1.55785E-6	-45.415132
1.557895E-6	-45.401554
1.55794E-6	-45.394028
1.557985E-6	-45.257837
1.55803E-6	-44.983931
1.558075E-6	-44.762535
1.55812E-6	-44.66991
1.558165E-6	-44.675004
1.55821E-6	-44.680104
1.558255E-6	-44.698003
1.5583E-6	-44.696722
1.558345E-6	-44.722412
1.55839E-6	-44.853195
1.558435E-6	-45.135695
1.55848E-6	-45.373026
1.558525E-6	-45.457651
1.55857E-6	-45.463759
1.558615E-6	-45.459177
1.55866E-6	-45.457651
1.558705E-6	-45.460704
1.55875E-6	-45.448505
1.558795E-6	-45.322439
1.55884E-6	-45.0515
1.558885E-6	-44.839938
1.55893E-6	-44.757337
1.558975E-6	-44.762535
1.55902E-6	-44.780778
1.559065E-6	-44.780778
1.55911E-6	-44.77295
1.559155E-6	-44.793855
1.5592E-6	-44.945787
1.559245E-6	-45.22011
1.55929E-6	-45.453076
1.559335E-6	-45.533075
1.55938E-6	-45.531523
1.559425E-6	-45.531523
1.55947E-6	-45.536182
1.559515E-6	-45.553308
1.55956E-6	-45.54863
1.559605E-6	-45.412111
1.55965E-6	-45.128616
1.559695E-6	-44.929541
1.55974E-6	-44.863829
1.559785E-6	-44.867824
1.55983E-6	-44.875825
1.559875E-6	-44.878495
1.55992E-6	-44.878495
1.559965E-6	-44.907975
1.56001E-6	-45.048721
1.560055E-6	-45.325399
1.5601E-6	-45.543958
1.560145E-6	-45.62091
1.56019E-6	-45.617742
1.560235E-6	-45.630427
1.56028E-6	-45.636783
1.560325E-6	-45.655908
1.56037E-6	-45.636783
1.560415E-6	-45.511392
1.56046E-6	-45.247648
1.560505E-6	-45.0515
1.56055E-6	-44.992148
1.560595E-6	-44.990778
1.56064E-6	-45.003129
1.560685E-6	-44.996263
1.56073E-6	-44.994891
1.560775E-6	-45.029321
1.56082E-6	-45.172693
1.560865E-6	-45.422695
1.56091E-6	-45.633604
1.560955E-6	-45.700863
1.561E-6	-45.70894
1.561045E-6	-45.720273
1.56109E-6	-45.731635
1.561135E-6	-45.743028
1.56118E-6	-45.728386
1.561225E-6	-45.609833
1.56127E-6	-45.374523
1.561315E-6	-45.191311
1.56136E-6	-45.144205
1.561405E-6	-45.132862
1.56145E-6	-45.135695
1.561495E-6	-45.134278
1.56154E-6	-45.134278
1.561585E-6	-45.168408
1.56163E-6	-45.285616
1.561675E-6	-45.516029
1.56172E-6	-45.721894
1.561765E-6	-45.779028
1.56181E-6	-45.793842
1.561855E-6	-45.813673
1.5619E-6	-45.826944
1.561945E-6	-45.828606
1.56199E-6	-45.81533
1.562035E-6	-45.726762
1.56208E-6	-45.520671
1.562125E-6	-45.341712
1.56217E-6	-45.279753
1.562215E-6	-45.254924
1.56226E-6	-45.263671
1.562305E-6	-45.260753
1.56235E-6	-45.263671
1.562395E-6	-45.295895
1.56244E-6	-45.391022
1.562485E-6	-45.601938
1.56253E-6	-45.780672
1.562575E-6	-45.870357
1.56262E-6	-45.888856
1.562665E-6	-45.9176
1.56271E-6	-45.922693
1.562755E-6	-45.924392
1.5628E-6	-45.907433
1.562845E-6	-45.833595
1.56289E-6	-45.646335
1.562935E-6	-45.474469
1.56298E-6	-45.40306
1.563025E-6	-45.380515
1.56307E-6	-45.388017
1.563115E-6	-45.385015
1.56316E-6	-45.398542
1.563205E-6	-45.424209
1.56325E-6	-45.499049
1.563295E-6	-45.683147
1.56334E-6	-45.872036
1.563385E-6	-45.951663
1.56343E-6	-45.980827
1.563475E-6	-45.998075
