Wavelength (nm)	Power (dBm)
1.525E-6	-47.454519
1.525045E-6	-47.31422
1.52509E-6	-47.342391
1.525135E-6	-47.627077
1.52518E-6	-47.947956
1.525225E-6	-47.980569
1.52527E-6	-47.870138
1.525315E-6	-47.75208
1.52536E-6	-47.62205
1.525405E-6	-47.486051
1.52545E-6	-47.293212
1.525495E-6	-46.736641
1.52554E-6	-45.895602
1.525585E-6	-45.433304
1.52563E-6	-45.191311
1.525675E-6	-45.022413
1.52572E-6	-44.855851
1.525765E-6	-44.668637
1.52581E-6	-44.575481
1.525855E-6	-44.682657
1.5259E-6	-45.192746
1.525945E-6	-45.833595
1.52599E-6	-46.03452
1.526035E-6	-45.934598
1.52608E-6	-45.850267
1.526125E-6	-45.752817
1.52617E-6	-45.678327
1.526215E-6	-45.451551
1.52626E-6	-44.744369
1.526305E-6	-43.790316
1.52635E-6	-43.141687
1.526395E-6	-42.815814
1.52644E-6	-42.688143
1.526485E-6	-42.517344
1.52653E-6	-42.387489
1.526575E-6	-42.248995
1.52662E-6	-42.358239
1.526665E-6	-42.89798
1.52671E-6	-43.741733
1.526755E-6	-44.241197
1.5268E-6	-44.262004
1.526845E-6	-44.213608
1.52689E-6	-44.112802
1.526935E-6	-44.023048
1.52698E-6	-43.835245
1.527025E-6	-43.208448
1.52707E-6	-42.037033
1.527115E-6	-41.095231
1.52716E-6	-40.710412
1.527205E-6	-40.540885
1.52725E-6	-40.370627
1.527295E-6	-40.311436
1.52734E-6	-40.207704
1.527385E-6	-40.247521
1.52743E-6	-40.764969
1.527475E-6	-41.856192
1.52752E-6	-42.702684
1.527565E-6	-42.924298
1.52761E-6	-42.920043
1.527655E-6	-42.84749
1.5277E-6	-42.740884
1.527745E-6	-42.693792
1.52779E-6	-42.1846
1.527835E-6	-40.82547
1.52788E-6	-39.685915
1.527925E-6	-39.093893
1.52797E-6	-38.900841
1.528015E-6	-38.810742
1.52806E-6	-38.741935
1.528105E-6	-38.703101
1.52815E-6	-38.651856
1.528195E-6	-39.136402
1.52824E-6	-40.279824
1.528285E-6	-41.544679
1.52833E-6	-42.061398
1.528375E-6	-42.070483
1.52842E-6	-42.053726
1.528465E-6	-41.988708
1.52851E-6	-41.577653
1.528555E-6	-38.138916
1.5286E-6	-26.399749
1.528645E-6	-19.500071
1.52869E-6	-16.509168
1.528735E-6	-15.586191
1.52878E-6	-15.316527
1.528825E-6	-15.188441
1.52887E-6	-15.087784
1.528915E-6	-15.221555
1.52896E-6	-16.659486
1.529005E-6	-20.66614
1.52905E-6	-29.637705
1.529095E-6	-37.809397
1.52914E-6	-40.90444
1.529185E-6	-41.533537
1.52923E-6	-41.690266
1.529275E-6	-41.552744
1.52932E-6	-40.418663
1.529365E-6	-30.734003
1.52941E-6	-21.014942
1.529455E-6	-16.957249
1.5295E-6	-15.523769
1.529545E-6	-15.157002
1.52959E-6	-15.043169
1.529635E-6	-14.963455
1.52968E-6	-14.956651
1.529725E-6	-15.788899
1.52977E-6	-18.817353
1.529815E-6	-25.598784
1.52986E-6	-35.188441
1.529905E-6	-40.245222
1.52995E-6	-41.409819
1.529995E-6	-41.672357
1.53004E-6	-41.619699
1.530085E-6	-41.040805
1.53013E-6	-34.830682
1.530175E-6	-23.042557
1.53022E-6	-17.883456
1.530265E-6	-15.825283
1.53031E-6	-15.273898
1.530355E-6	-15.134278
1.5304E-6	-15.059846
1.530445E-6	-15.021033
1.53049E-6	-15.410601
1.530535E-6	-17.535014
1.53058E-6	-22.714028
1.530625E-6	-32.232988
1.53067E-6	-39.259153
1.530715E-6	-41.252863
1.53076E-6	-41.66152
1.530805E-6	-41.72114
1.53085E-6	-41.424263
1.530895E-6	-38.693447
1.53094E-6	-26.165437
1.530985E-6	-19.273825
1.53103E-6	-16.26904
1.531075E-6	-15.418156
1.53112E-6	-15.240384
1.531165E-6	-15.181276
1.53121E-6	-15.135695
1.531255E-6	-15.292956
1.5313E-6	-16.627405
1.531345E-6	-20.334359
1.53139E-6	-28.616973
1.531435E-6	-37.486051
1.53148E-6	-40.848113
1.531525E-6	-41.598312
1.53157E-6	-41.743792
1.531615E-6	-41.614027
1.53166E-6	-40.527624
1.531705E-6	-30.989778
1.53175E-6	-21.060719
1.531795E-6	-16.918626
1.53184E-6	-15.486742
1.531885E-6	-15.187007
1.53193E-6	-15.132862
1.531975E-6	-15.114493
1.53202E-6	-15.179844
1.532065E-6	-15.948245
1.53211E-6	-18.827287
1.532155E-6	-25.335773
1.5322E-6	-35.023794
1.532245E-6	-40.209071
1.53229E-6	-41.493538
1.532335E-6	-41.769172
1.53238E-6	-41.721786
1.532425E-6	-41.252284
1.53247E-6	-36.362001
1.532515E-6	-23.645163
1.53256E-6	-17.961515
1.532605E-6	-15.782316
1.53265E-6	-15.241836
1.532695E-6	-15.161275
1.53274E-6	-15.172693
1.532785E-6	-15.218666
1.53283E-6	-15.600361
1.532875E-6	-17.416022
1.53292E-6	-21.9382
1.532965E-6	-30.679831
1.53301E-6	-38.777841
1.533055E-6	-41.206174
1.5331E-6	-41.730834
1.533145E-6	-41.839577
1.53319E-6	-41.598939
1.533235E-6	-39.909743
1.53328E-6	-28.598063
1.533325E-6	-20.046281
1.53337E-6	-16.485902
1.533415E-6	-15.389519
1.53346E-6	-15.217222
1.533505E-6	-15.240384
1.53355E-6	-15.303252
1.533595E-6	-15.497509
1.53364E-6	-16.516951
1.533685E-6	-19.685915
1.53373E-6	-26.78816
1.533775E-6	-36.278247
1.53382E-6	-40.659563
1.533865E-6	-41.687063
1.53391E-6	-41.877553
1.533955E-6	-41.828976
1.534E-6	-41.244179
1.534045E-6	-35.014138
1.53409E-6	-22.886146
1.534135E-6	-17.637147
1.53418E-6	-15.665502
1.534225E-6	-15.26659
1.53427E-6	-15.269512
1.534315E-6	-15.349147
1.53436E-6	-15.476002
1.534405E-6	-16.038007
1.53445E-6	-18.326827
1.534495E-6	-23.590219
1.53454E-6	-32.789317
1.534585E-6	-39.742846
1.53463E-6	-41.573284
1.534675E-6	-41.960652
1.53472E-6	-41.996266
1.534765E-6	-41.725015
1.53481E-6	-39.465374
1.534855E-6	-27.066374
1.5349E-6	-19.461536
1.534945E-6	-16.29117
1.53499E-6	-15.412111
1.535035E-6	-15.335773
1.53508E-6	-15.425723
1.535125E-6	-15.551748
1.53517E-6	-15.810362
1.535215E-6	-17.13319
1.53526E-6	-20.719115
1.535305E-6	-28.629625
1.53535E-6	-37.594508
1.535395E-6	-41.130583
1.53544E-6	-41.928033
1.535485E-6	-42.086603
1.53553E-6	-41.994891
1.535575E-6	-41.281936
1.53562E-6	-34.241197
1.535665E-6	-22.663213
1.53571E-6	-17.639669
1.535755E-6	-15.76918
1.5358E-6	-15.43027
1.535845E-6	-15.459177
1.53589E-6	-15.564241
1.535935E-6	-15.699249
1.53598E-6	-16.317131
1.536025E-6	-18.774565
1.53607E-6	-24.154426
1.536115E-6	-33.725317
1.53616E-6	-40.161032
1.536205E-6	-41.7399
1.53625E-6	-42.078185
1.536295E-6	-42.144566
1.53634E-6	-41.856858
1.536385E-6	-39.706162
1.53643E-6	-27.33298
1.536475E-6	-19.665762
1.53652E-6	-16.414941
1.536565E-6	-15.486742
1.53661E-6	-15.409092
1.536655E-6	-15.456125
1.5367E-6	-15.514483
1.536745E-6	-15.746288
1.53679E-6	-17.039933
1.536835E-6	-20.664621
1.53688E-6	-29.003194
1.536925E-6	-37.770236
1.53697E-6	-41.230897
1.537015E-6	-41.993516
1.53706E-6	-42.102783
1.537105E-6	-42.022479
1.53715E-6	-41.315907
1.537195E-6	-34.589202
1.53724E-6	-22.642415
1.537285E-6	-17.629592
1.53733E-6	-15.705707
1.537375E-6	-15.359578
1.53742E-6	-15.344684
1.537465E-6	-15.356595
1.53751E-6	-15.407583
1.537555E-6	-15.951663
1.5376E-6	-18.332739
1.537645E-6	-23.754085
1.53769E-6	-33.439977
1.537735E-6	-40.02701
1.53778E-6	-41.697322
1.537825E-6	-42.05512
1.53787E-6	-42.091521
1.537915E-6	-41.85819
1.53796E-6	-40.176383
1.538005E-6	-28.850556
1.53805E-6	-20.038825
1.538095E-6	-16.511113
1.53814E-6	-15.4546
1.538185E-6	-15.304725
1.53823E-6	-15.285616
1.538275E-6	-15.269512
1.53832E-6	-15.406075
1.538365E-6	-16.589614
1.53841E-6	-20.117087
1.538455E-6	-28.035475
1.5385E-6	-37.20105
1.538545E-6	-41.040805
1.53859E-6	-41.888944
1.538635E-6	-42.097852
1.53868E-6	-42.04259
1.538725E-6	-41.507035
1.53877E-6	-35.570501
1.538815E-6	-23.684548
1.53886E-6	-18.285661
1.538905E-6	-16.057235
1.53895E-6	-15.578339
1.538995E-6	-15.499049
1.53904E-6	-15.462231
1.539085E-6	-15.442418
1.53913E-6	-15.851937
1.539175E-6	-17.999707
1.53922E-6	-23.032069
1.539265E-6	-32.211978
1.53931E-6	-39.593977
1.539355E-6	-41.630433
1.5394E-6	-42.070483
1.539445E-6	-42.137456
1.53949E-6	-41.983219
1.539535E-6	-40.53646
1.53958E-6	-29.796387
1.539625E-6	-20.734003
1.53967E-6	-17.046529
1.539715E-6	-15.830268
1.53976E-6	-15.606673
1.539805E-6	-15.543958
1.53985E-6	-15.492891
1.539895E-6	-15.57677
1.53994E-6	-16.560009
1.539985E-6	-19.734667
1.54003E-6	-27.144427
1.540075E-6	-36.74074
1.54012E-6	-40.945279
1.540165E-6	-41.970895
1.54021E-6	-42.185319
1.540255E-6	-42.155254
1.5403E-6	-41.752886
1.540345E-6	-37.542406
1.54039E-6	-24.723701
1.540435E-6	-18.804142
1.54048E-6	-16.263525
1.540525E-6	-15.627252
1.54057E-6	-15.491353
1.540615E-6	-15.422695
1.54066E-6	-15.397037
1.540705E-6	-15.700863
1.54075E-6	-17.525177
1.540795E-6	-22.066986
1.54084E-6	-30.816027
1.540885E-6	-39.023957
1.54093E-6	-41.567049
1.540975E-6	-42.136035
1.54102E-6	-42.234441
1.541065E-6	-42.091521
1.54111E-6	-41.076271
1.541155E-6	-31.754186
1.5412E-6	-21.678745
1.541245E-6	-17.469044
1.54129E-6	-16.011923
1.541335E-6	-15.675117
1.54138E-6	-15.579908
1.541425E-6	-15.536182
1.54147E-6	-15.564241
1.541515E-6	-16.29117
1.54156E-6	-19.04482
1.541605E-6	-25.207127
1.54165E-6	-34.817493
1.541695E-6	-40.541377
1.54174E-6	-41.933453
1.541785E-6	-42.200429
1.54183E-6	-42.238075
1.541875E-6	-41.91249
1.54192E-6	-39.115095
1.541965E-6	-26.174427
1.54201E-6	-19.438577
1.542055E-6	-16.534514
1.5421E-6	-15.696024
1.542145E-6	-15.537736
1.54219E-6	-15.472938
1.542235E-6	-15.421181
1.54228E-6	-15.56737
1.542325E-6	-16.844495
1.54237E-6	-20.42297
1.542415E-6	-28.551146
1.54246E-6	-37.535014
1.542505E-6	-41.198727
1.54255E-6	-42.097852
1.542595E-6	-42.272384
1.54264E-6	-42.196107
1.542685E-6	-41.60522
1.54273E-6	-35.197055
1.542775E-6	-23.447655
1.54282E-6	-18.271053
1.542865E-6	-16.19427
1.54291E-6	-15.734887
1.542955E-6	-15.644741
1.543E-6	-15.600361
1.543045E-6	-15.581478
1.54309E-6	-15.924392
1.543135E-6	-17.835702
1.54318E-6	-22.73762
1.543225E-6	-31.974999
1.54327E-6	-39.586073
1.543315E-6	-41.760695
1.54336E-6	-42.226457
1.543405E-6	-42.31214
1.54345E-6	-42.120439
1.543495E-6	-40.833355
1.54354E-6	-30.625323
1.543585E-6	-21.136221
1.54363E-6	-17.244583
1.543675E-6	-15.936302
1.54372E-6	-15.68154
1.543765E-6	-15.628839
1.54381E-6	-15.590909
1.543855E-6	-15.663902
1.5439E-6	-16.509168
1.543945E-6	-19.476909
1.54399E-6	-26.124322
1.544035E-6	-35.598784
1.54408E-6	-40.782095
1.544125E-6	-42.078886
1.54417E-6	-42.331412
1.544215E-6	-42.347041
1.54426E-6	-41.984591
1.544305E-6	-38.699881
1.54435E-6	-25.999804
1.544395E-6	-19.450041
1.54444E-6	-16.599527
1.544485E-6	-15.853609
1.54453E-6	-15.721894
1.544575E-6	-15.689581
1.54462E-6	-15.67191
1.544665E-6	-15.831931
1.54471E-6	-17.162466
1.544755E-6	-20.937727
1.5448E-6	-29.465374
1.544845E-6	-38.110715
1.54489E-6	-41.517493
1.544935E-6	-42.24608
1.54498E-6	-42.386737
1.545025E-6	-42.347041
1.54507E-6	-41.69668
1.545115E-6	-34.849213
1.54516E-6	-23.324537
1.545205E-6	-18.227522
1.54525E-6	-16.169031
1.545295E-6	-15.702477
1.54534E-6	-15.633604
1.545385E-6	-15.616159
1.54543E-6	-15.619325
1.545475E-6	-15.998075
1.54552E-6	-17.9129
1.545565E-6	-22.762161
1.54561E-6	-31.409819
1.545655E-6	-39.562449
1.5457E-6	-41.8303
1.545745E-6	-42.366469
1.54579E-6	-42.454988
1.545835E-6	-42.319542
1.54588E-6	-41.085741
1.545925E-6	-30.899095
1.54597E-6	-21.177032
1.546015E-6	-17.286231
1.54606E-6	-15.99462
1.546105E-6	-15.760991
1.54615E-6	-15.728386
1.546195E-6	-15.712175
1.54624E-6	-15.73977
1.546285E-6	-16.3865
1.54633E-6	-19.072794
1.546375E-6	-25.282683
1.54642E-6	-34.9485
1.546465E-6	-40.702746
1.54651E-6	-42.131067
1.546555E-6	-42.482591
1.5466E-6	-42.507276
1.546645E-6	-42.230084
1.54669E-6	-39.792245
1.546735E-6	-28.167302
1.54678E-6	-20.176383
1.546825E-6	-16.92718
1.54687E-6	-15.949953
1.546915E-6	-15.785606
1.54696E-6	-15.741399
1.547005E-6	-15.731635
1.54705E-6	-15.893915
1.547095E-6	-17.044329
1.54714E-6	-20.454681
1.547185E-6	-28.06041
1.54723E-6	-37.253804
1.547275E-6	-41.412223
1.54732E-6	-42.366469
1.547365E-6	-42.560984
1.54741E-6	-42.528213
1.547455E-6	-42.030096
1.5475E-6	-36.855008
1.547545E-6	-24.502613
1.54759E-6	-18.8706
1.547635E-6	-16.538427
1.54768E-6	-16.001533
1.547725E-6	-15.91082
1.54777E-6	-15.888856
1.547815E-6	-15.900669
1.54786E-6	-16.111886
1.547905E-6	-17.597004
1.54795E-6	-21.665341
1.547995E-6	-29.918258
1.54804E-6	-38.804142
1.548085E-6	-41.794702
1.54813E-6	-42.471068
1.548175E-6	-42.628074
1.54822E-6	-42.50341
1.548265E-6	-41.65961
1.54831E-6	-33.285494
1.548355E-6	-22.466468
1.5484E-6	-17.93444
1.548445E-6	-16.206945
1.54849E-6	-15.830268
1.548535E-6	-15.77082
1.54858E-6	-15.75445
1.548625E-6	-15.783961
1.54867E-6	-16.205132
1.548715E-6	-18.33866
1.54876E-6	-23.454384
1.548805E-6	-32.808345
1.54885E-6	-40.071815
1.548895E-6	-42.118316
1.54894E-6	-42.57825
1.548985E-6	-42.619333
1.54903E-6	-42.454223
1.549075E-6	-41.059056
1.54912E-6	-30.800333
1.549165E-6	-21.519957
1.54921E-6	-17.478754
1.549255E-6	-16.133227
1.5493E-6	-15.8603
1.549345E-6	-15.808707
1.54939E-6	-15.805399
1.549435E-6	-15.845258
1.54948E-6	-16.474316
1.549525E-6	-19.055289
1.54957E-6	-24.784697
1.549615E-6	-34.252744
1.54966E-6	-40.549255
1.549705E-6	-42.224282
1.54975E-6	-42.58612
1.549795E-6	-42.658405
1.54984E-6	-42.353756
1.549885E-6	-40.211806
1.54993E-6	-28.38632
1.549975E-6	-20.255344
1.55002E-6	-16.92932
1.550065E-6	-15.943122
1.55011E-6	-15.777385
1.550155E-6	-15.738142
1.5502E-6	-15.73001
1.550245E-6	-15.812017
1.55029E-6	-16.643415
1.550335E-6	-19.617774
1.55038E-6	-26.278247
1.550425E-6	-36.062494
1.55047E-6	-41.126078
1.550515E-6	-42.34555
1.55056E-6	-42.633645
1.550605E-6	-42.608234
1.55065E-6	-42.267257
1.550695E-6	-38.810742
1.55074E-6	-26.022337
1.550785E-6	-19.465374
1.55083E-6	-16.742791
1.550875E-6	-15.989443
1.55092E-6	-15.830268
1.550965E-6	-15.803746
1.55101E-6	-15.805399
1.551055E-6	-15.907433
1.5511E-6	-17.10634
1.551145E-6	-20.538426
1.55119E-6	-28.526329
1.551235E-6	-37.657359
1.55128E-6	-41.537866
1.551325E-6	-42.461872
1.55137E-6	-42.654402
1.551415E-6	-42.608234
1.55146E-6	-42.112661
1.551505E-6	-37.031155
1.55155E-6	-24.621809
1.551595E-6	-18.982529
1.55164E-6	-16.613443
1.551685E-6	-16.067759
1.55173E-6	-15.972229
1.551775E-6	-15.941416
1.55182E-6	-15.920995
1.551865E-6	-16.13501
1.55191E-6	-17.682756
1.551955E-6	-21.66343
1.552E-6	-29.617774
1.552045E-6	-38.582368
1.55209E-6	-41.830962
1.552135E-6	-42.561768
1.55218E-6	-42.672043
1.552225E-6	-42.629665
1.55227E-6	-41.996266
1.552315E-6	-35.489815
1.55236E-6	-23.797598
1.552405E-6	-18.582368
1.55245E-6	-16.485902
1.552495E-6	-16.031036
1.55254E-6	-15.963648
1.552585E-6	-15.938006
1.55263E-6	-15.927791
1.552675E-6	-16.197888
1.55272E-6	-18.007935
1.552765E-6	-22.472603
1.55281E-6	-31.001795
1.552855E-6	-39.336741
1.5529E-6	-42.0412
1.552945E-6	-42.604277
1.55299E-6	-42.724587
1.553035E-6	-42.586908
1.55308E-6	-41.608992
1.553125E-6	-32.762981
1.55317E-6	-22.24608
1.553215E-6	-17.814645
1.55326E-6	-16.281935
1.553305E-6	-15.934598
1.55335E-6	-15.8603
1.553395E-6	-15.848596
1.55344E-6	-15.851937
1.553485E-6	-16.26904
1.55353E-6	-18.38632
1.553575E-6	-23.215727
1.55362E-6	-32.158822
1.553665E-6	-39.779843
1.55371E-6	-42.134615
1.553755E-6	-42.676062
1.5538E-6	-42.728656
1.553845E-6	-42.590849
1.55389E-6	-41.384059
1.553935E-6	-31.47703
1.55398E-6	-21.680023
1.554025E-6	-17.71343
1.55407E-6	-16.36388
1.554115E-6	-16.066003
1.55416E-6	-15.998075
1.554205E-6	-15.956795
1.55425E-6	-15.982549
1.554295E-6	-16.487837
1.55434E-6	-18.797552
1.554385E-6	-24.182778
1.55443E-6	-33.611116
1.554475E-6	-40.384365
1.55452E-6	-42.313619
1.554565E-6	-42.718898
1.55461E-6	-42.78107
1.554655E-6	-42.590849
1.5547E-6	-40.940962
1.554745E-6	-30.153377
1.55479E-6	-21.086856
1.554835E-6	-17.552282
1.55488E-6	-16.333903
1.554925E-6	-16.076548
1.55497E-6	-16.038007
1.555015E-6	-16.010189
1.55506E-6	-16.041496
1.555105E-6	-16.631402
1.55515E-6	-19.027427
1.555195E-6	-24.903943
1.55524E-6	-34.374692
1.555285E-6	-40.723217
1.55533E-6	-42.373214
1.555375E-6	-42.7597
1.55542E-6	-42.785191
1.555465E-6	-42.520447
1.55551E-6	-40.415795
1.555555E-6	-28.709549
1.5556E-6	-20.566044
1.555645E-6	-17.309543
1.55569E-6	-16.278247
1.555735E-6	-16.048484
1.55578E-6	-16.029295
1.555825E-6	-16.004993
1.55587E-6	-16.032777
1.555915E-6	-16.627405
1.55596E-6	-19.154237
1.556005E-6	-25.257837
1.55605E-6	-34.817493
1.556095E-6	-40.860273
1.55614E-6	-42.429838
1.556185E-6	-42.795099
1.55623E-6	-42.829956
1.556275E-6	-42.504183
1.55632E-6	-40.030508
1.556365E-6	-28.187282
1.55641E-6	-20.344691
1.556455E-6	-17.164726
1.5565E-6	-16.199698
1.556545E-6	-15.99462
1.55659E-6	-15.980827
1.556635E-6	-15.979106
1.55668E-6	-16.039751
1.556725E-6	-16.765416
1.55677E-6	-19.535048
1.556815E-6	-25.893915
1.55686E-6	-35.428754
1.556905E-6	-41.043565
1.55695E-6	-42.479516
1.556995E-6	-42.818306
1.55704E-6	-42.845817
1.557085E-6	-42.53288
1.55713E-6	-40.041894
1.557175E-6	-28.116341
1.55722E-6	-20.222307
1.557265E-6	-17.084092
1.55731E-6	-16.117211
1.557355E-6	-15.91082
1.5574E-6	-15.883803
1.557445E-6	-15.883803
1.55749E-6	-15.948245
1.557535E-6	-16.757175
1.55758E-6	-19.722428
1.557625E-6	-26.424463
1.55767E-6	-35.909126
1.557715E-6	-41.23205
1.55776E-6	-42.53288
1.557805E-6	-42.855026
1.55785E-6	-42.837462
1.557895E-6	-42.528991
1.55794E-6	-39.767475
1.557985E-6	-27.137681
1.55803E-6	-20.149779
1.558075E-6	-17.039933
1.55812E-6	-16.110112
1.558165E-6	-15.944829
1.55821E-6	-15.926091
1.558255E-6	-15.934598
1.5583E-6	-16.022337
1.558345E-6	-16.817279
1.55839E-6	-19.746941
1.558435E-6	-26.263525
1.55848E-6	-35.689581
1.558525E-6	-41.174185
1.55857E-6	-42.575891
1.558615E-6	-42.874345
1.55866E-6	-42.910695
1.558705E-6	-42.593216
1.55875E-6	-40.03007
1.558795E-6	-28.079904
1.55884E-6	-20.205882
1.558885E-6	-17.068585
1.55893E-6	-16.118988
1.558975E-6	-15.948245
1.55902E-6	-15.958508
1.559065E-6	-15.982549
1.55911E-6	-16.067759
1.559155E-6	-16.876111
1.5592E-6	-19.694003
1.559245E-6	-26.29117
1.55929E-6	-35.73977
1.559335E-6	-41.271448
1.55938E-6	-42.639224
1.559425E-6	-42.932822
1.55947E-6	-42.952491
1.559515E-6	-42.656803
1.55956E-6	-40.20816
1.559605E-6	-28.320922
1.55965E-6	-20.320778
1.559695E-6	-17.070797
1.55974E-6	-16.108339
1.559785E-6	-15.948245
1.55983E-6	-15.99462
1.559875E-6	-16.027554
1.55992E-6	-16.110112
1.559965E-6	-16.983191
1.56001E-6	-19.842212
1.560055E-6	-26.677636
1.5601E-6	-36.201508
1.560145E-6	-41.364392
1.56019E-6	-42.677671
1.560235E-6	-42.974833
1.56028E-6	-43.020736
1.560325E-6	-42.713216
1.56037E-6	-40.260874
1.560415E-6	-28.23041
1.56046E-6	-20.293742
1.560505E-6	-17.113037
1.56055E-6	-16.205132
1.560595E-6	-16.081831
1.56064E-6	-16.097716
1.560685E-6	-16.145725
1.56073E-6	-16.267201
1.560775E-6	-17.055338
1.56082E-6	-19.825493
1.560865E-6	-26.287474
1.56091E-6	-35.961934
1.560955E-6	-41.357857
1.561E-6	-42.709162
1.561045E-6	-43.007695
1.56109E-6	-43.016384
1.561135E-6	-42.770372
1.56118E-6	-40.768078
1.561225E-6	-29.150664
1.56127E-6	-20.520764
1.561315E-6	-17.117508
1.56136E-6	-16.11366
1.561405E-6	-15.975667
1.56145E-6	-16.011923
1.561495E-6	-16.06074
1.56154E-6	-16.145725
1.561585E-6	-16.838199
1.56163E-6	-19.538952
1.561675E-6	-25.751184
1.56172E-6	-35.343198
1.561765E-6	-41.156012
1.56181E-6	-42.669633
1.561855E-6	-43.003357
1.5619E-6	-43.102473
1.561945E-6	-42.882771
1.56199E-6	-41.266794
1.562035E-6	-29.726504
1.56208E-6	-20.89856
1.562125E-6	-17.279262
1.56217E-6	-16.085356
1.562215E-6	-15.941416
1.56226E-6	-15.967079
1.562305E-6	-16.027554
1.56235E-6	-16.120765
1.562395E-6	-16.695862
1.56244E-6	-19.108016
1.562485E-6	-24.595454
1.56253E-6	-34.081566
1.562575E-6	-40.672726
1.56262E-6	-42.533658
1.562665E-6	-42.986047
1.56271E-6	-43.108688
1.562755E-6	-42.922595
1.5628E-6	-41.683861
1.562845E-6	-31.245914
1.56289E-6	-21.304749
1.562935E-6	-17.396901
1.56298E-6	-15.998075
1.563025E-6	-15.812017
1.56307E-6	-15.835259
1.563115E-6	-15.915904
1.56316E-6	-16.018863
1.563205E-6	-16.513058
1.56325E-6	-18.655041
1.563295E-6	-23.984832
1.56334E-6	-33.292904
1.563385E-6	-40.40434
1.56343E-6	-42.442776
1.563475E-6	-42.94992
