Wavelength (nm)	Power (dBm)
1.525E-6	-83.412257
1.525045E-6	-83.621102
1.52509E-6	-83.929741
1.525135E-6	-85.878756
1.52518E-6	-87.830428
1.525225E-6	-94.505063
1.52527E-6	-120
1.525315E-6	-90.833882
1.52536E-6	-120
1.525405E-6	-120
1.52545E-6	-120
1.525495E-6	-92.460341
1.52554E-6	-85.198493
1.525585E-6	-83.78097
1.52563E-6	-82.496459
1.525675E-6	-82.012113
1.52572E-6	-82.304012
1.525765E-6	-80.966929
1.52581E-6	-81.235512
1.525855E-6	-80.856568
1.5259E-6	-83.235808
1.525945E-6	-86.476245
1.52599E-6	-90.192242
1.526035E-6	-105.188441
1.52608E-6	-91.696038
1.526125E-6	-90.491485
1.52617E-6	-120
1.526215E-6	-89.767475
1.52626E-6	-120
1.526305E-6	-85.497509
1.52635E-6	-82.427558
1.526395E-6	-80.665127
1.52644E-6	-80.287242
1.526485E-6	-80.156077
1.52653E-6	-80.380571
1.526575E-6	-79.97402
1.52662E-6	-80.148431
1.526665E-6	-81.132274
1.52671E-6	-84.732731
1.526755E-6	-89.366666
1.5268E-6	-99.641702
1.526845E-6	-120
1.52689E-6	-120
1.526935E-6	-120
1.52698E-6	-120
1.527025E-6	-91.76591
1.52707E-6	-86.728455
1.527115E-6	-81.597684
1.52716E-6	-79.065783
1.527205E-6	-79.04482
1.52725E-6	-79.186527
1.527295E-6	-78.706324
1.52734E-6	-78.979095
1.527385E-6	-78.443604
1.52743E-6	-79.237237
1.527475E-6	-81.753536
1.52752E-6	-85.961934
1.527565E-6	-120
1.52761E-6	-120
1.527655E-6	-95.275361
1.5277E-6	-120
1.527745E-6	-120
1.52779E-6	-94.584208
1.527835E-6	-84.655931
1.52788E-6	-80.915686
1.527925E-6	-78.989406
1.52797E-6	-78.158766
1.528015E-6	-77.705742
1.52806E-6	-77.749493
1.528105E-6	-77.614521
1.52815E-6	-77.340036
1.528195E-6	-78.541823
1.52824E-6	-79.75925
1.528285E-6	-82.456517
1.52833E-6	-92.427558
1.528375E-6	-95.306199
1.52842E-6	-120
1.528465E-6	-120
1.52851E-6	-120
1.528555E-6	-91.138478
1.5286E-6	-84.936303
1.528645E-6	-80.780016
1.52869E-6	-78.894103
1.528735E-6	-77.363639
1.52878E-6	-76.876111
1.528825E-6	-77.290884
1.52887E-6	-76.985359
1.528915E-6	-76.802695
1.52896E-6	-76.882461
1.529005E-6	-77.859513
1.52905E-6	-82.323989
1.529095E-6	-86.732546
1.52914E-6	-120
1.529185E-6	-120
1.52923E-6	-120
1.529275E-6	-120
1.52932E-6	-120
1.529365E-6	-99.314431
1.52941E-6	-81.978422
1.529455E-6	-78.471004
1.5295E-6	-77.081873
1.529545E-6	-76.767479
1.52959E-6	-76.92932
1.529635E-6	-76.501399
1.52968E-6	-76.38839
1.529725E-6	-76.190655
1.52977E-6	-77.384992
1.529815E-6	-79.755143
1.52986E-6	-82.908997
1.529905E-6	-89.400581
1.52995E-6	-90.474013
1.529995E-6	-120
1.53004E-6	-120
1.530085E-6	-120
1.53013E-6	-98.27689
1.530175E-6	-83.600158
1.53022E-6	-79.208188
1.530265E-6	-76.617428
1.53031E-6	-76.34512
1.530355E-6	-75.900669
1.5304E-6	-76.487837
1.530445E-6	-76.160052
1.53049E-6	-76.528652
1.530535E-6	-76.513058
1.53058E-6	-78.917733
1.530625E-6	-81.459978
1.53067E-6	-91.173616
1.530715E-6	-120
1.53076E-6	-93.157832
1.530805E-6	-120
1.53085E-6	-120
1.530895E-6	-120
1.53094E-6	-86.495581
1.530985E-6	-79.19013
1.53103E-6	-76.639407
1.531075E-6	-76.441655
1.53112E-6	-75.868679
1.531165E-6	-76.287474
1.53121E-6	-75.919297
1.531255E-6	-75.713793
1.5313E-6	-76.181632
1.531345E-6	-77.022395
1.53139E-6	-79.92679
1.531435E-6	-85.31505
1.53148E-6	-120
1.531525E-6	-92.097148
1.53157E-6	-120
1.531615E-6	-97.883456
1.53166E-6	-120
1.531705E-6	-87.609509
1.53175E-6	-80.983782
1.531795E-6	-77.033348
1.53184E-6	-76.039751
1.531885E-6	-75.984272
1.53193E-6	-76.095948
1.531975E-6	-76.167233
1.53202E-6	-76.038007
1.532065E-6	-76.111886
1.53211E-6	-76.595559
1.532155E-6	-79.182927
1.5322E-6	-89.661743
1.532245E-6	-93.417977
1.53229E-6	-120
1.532335E-6	-85.505216
1.53238E-6	-120
1.532425E-6	-120
1.53247E-6	-92.080989
1.532515E-6	-84.85718
1.53256E-6	-79.240882
1.532605E-6	-76.187044
1.53265E-6	-76.027554
1.532695E-6	-75.902359
1.53274E-6	-76.206945
1.532785E-6	-76.015392
1.53283E-6	-76.169031
1.532875E-6	-77.090754
1.53292E-6	-78.178708
1.532965E-6	-81.584528
1.53301E-6	-88.958544
1.533055E-6	-120
1.5331E-6	-92.196107
1.533145E-6	-120
1.53319E-6	-120
1.533235E-6	-98.256494
1.53328E-6	-85.718652
1.533325E-6	-81.232627
1.53337E-6	-78.218867
1.533415E-6	-76.579723
1.53346E-6	-76.607474
1.533505E-6	-76.869769
1.53355E-6	-76.641411
1.533595E-6	-76.850799
1.53364E-6	-76.605486
1.533685E-6	-78.236193
1.53373E-6	-79.381707
1.533775E-6	-86.127882
1.53382E-6	-92.131776
1.533865E-6	-120
1.53391E-6	-120
1.533955E-6	-95.07519
1.534E-6	-120
1.534045E-6	-89.558524
1.53409E-6	-84.434563
1.534135E-6	-80.014791
1.53418E-6	-78.187282
1.534225E-6	-76.965879
1.53427E-6	-77.344747
1.534315E-6	-77.2262
1.53436E-6	-77.13319
1.534405E-6	-77.059749
1.53445E-6	-77.662426
1.534495E-6	-79.825493
1.53454E-6	-82.718086
1.534585E-6	-95.37153
1.53463E-6	-94.312118
1.534675E-6	-120
1.53472E-6	-120
1.534765E-6	-120
1.53481E-6	-92.810004
1.534855E-6	-88.398317
1.5349E-6	-82.065589
1.534945E-6	-79.233596
1.53499E-6	-78.099486
1.535035E-6	-78.279812
1.53508E-6	-78.147412
1.535125E-6	-79.535048
1.53517E-6	-78.452718
1.535215E-6	-78.233301
1.53526E-6	-79.884296
1.535305E-6	-83.844708
1.53535E-6	-89.086848
1.535395E-6	-95.816987
1.53544E-6	-120
1.535485E-6	-120
1.53553E-6	-120
1.535575E-6	-120
1.53562E-6	-120
1.535665E-6	-85.290018
1.53571E-6	-80.9442
1.535755E-6	-79.362914
1.5358E-6	-78.8706
1.535845E-6	-79.041335
1.53589E-6	-78.894103
1.535935E-6	-78.989406
1.53598E-6	-78.732194
1.536025E-6	-79.465374
1.53607E-6	-80.913542
1.536115E-6	-83.825803
1.53616E-6	-120
1.536205E-6	-120
1.53625E-6	-84.339162
1.536295E-6	-120
1.53634E-6	-120
1.536385E-6	-120
1.53643E-6	-90.10061
1.536475E-6	-80.078443
1.53652E-6	-80.645431
1.536565E-6	-79.336741
1.53661E-6	-79.255493
1.536655E-6	-79.800533
1.5367E-6	-79.515582
1.536745E-6	-79.222688
1.53679E-6	-80.087739
1.536835E-6	-80.03182
1.53688E-6	-82.348532
1.536925E-6	-90.557148
1.53697E-6	-120
1.537015E-6	-120
1.53706E-6	-120
1.537105E-6	-120
1.53715E-6	-120
1.537195E-6	-120
1.53724E-6	-85.665502
1.537285E-6	-82.198268
1.53733E-6	-80.618307
1.537375E-6	-79.550685
1.53742E-6	-79.488475
1.537465E-6	-79.641702
1.53751E-6	-80.264565
1.537555E-6	-79.738755
1.5376E-6	-80.817075
1.537645E-6	-83.012037
1.53769E-6	-84.966179
1.537735E-6	-90.76756
1.53778E-6	-120
1.537825E-6	-120
1.53787E-6	-120
1.537915E-6	-120
1.53796E-6	-120
1.538005E-6	-104.424928
1.53805E-6	-83.904056
1.538095E-6	-81.71469
1.53814E-6	-80.934495
1.538185E-6	-80.197239
1.53823E-6	-80.154277
1.538275E-6	-80.521253
1.53832E-6	-80.392439
1.538365E-6	-79.952488
1.53841E-6	-80.55468
1.538455E-6	-84.570502
1.5385E-6	-86.655462
1.538545E-6	-100.870874
1.53859E-6	-120
1.538635E-6	-120
1.53868E-6	-120
1.538725E-6	-120
1.53877E-6	-120
1.538815E-6	-85.944829
1.53886E-6	-82.564902
1.538905E-6	-80.715529
1.53895E-6	-80.357875
1.538995E-6	-80.687965
1.53904E-6	-79.550685
1.539085E-6	-79.694003
1.53913E-6	-79.255493
1.539175E-6	-80.169604
1.53922E-6	-81.480693
1.539265E-6	-86.460838
1.53931E-6	-96.051982
1.539355E-6	-120
1.5394E-6	-120
1.539445E-6	-120
1.53949E-6	-94.221637
1.539535E-6	-93.73557
1.53958E-6	-100.373939
1.539625E-6	-83.804893
1.53967E-6	-80.90337
1.539715E-6	-79.884296
1.53976E-6	-80.48274
1.539805E-6	-79.649707
1.53985E-6	-79.469216
1.539895E-6	-79.299621
1.53994E-6	-79.266483
1.539985E-6	-80.631345
1.54003E-6	-82.895441
1.540075E-6	-90.651482
1.54012E-6	-92.095741
1.540165E-6	-120
1.54021E-6	-120
1.540255E-6	-120
1.5403E-6	-120
1.540345E-6	-95.224447
1.54039E-6	-85.81533
1.540435E-6	-82.904756
1.54048E-6	-80.055509
1.540525E-6	-79.645703
1.54057E-6	-79.775716
1.540615E-6	-79.314431
1.54066E-6	-78.897471
1.540705E-6	-79.918258
1.54075E-6	-79.821323
1.540795E-6	-80.940962
1.54084E-6	-83.695721
1.540885E-6	-87.90217
1.54093E-6	-87.75726
1.540975E-6	-100.212718
1.54102E-6	-94.072682
1.541065E-6	-120
1.54111E-6	-120
1.541155E-6	-90.600816
1.5412E-6	-84.843911
1.541245E-6	-81.366177
1.54129E-6	-79.892761
1.541335E-6	-79.097419
1.54138E-6	-79.100949
1.541425E-6	-78.924509
1.54147E-6	-79.473061
1.541515E-6	-79.34047
1.54156E-6	-79.333014
1.541605E-6	-81.895658
1.54165E-6	-85.382014
1.541695E-6	-120
1.54174E-6	-120
1.541785E-6	-90.731947
1.54183E-6	-120
1.541875E-6	-120
1.54192E-6	-120
1.541965E-6	-88.917733
1.54201E-6	-82.349278
1.542055E-6	-80.066961
1.5421E-6	-79.50782
1.542145E-6	-78.924509
1.54219E-6	-78.699881
1.542235E-6	-78.706324
1.54228E-6	-78.642315
1.542325E-6	-78.671002
1.54237E-6	-79.645703
1.542415E-6	-82.026632
1.54246E-6	-90.41962
1.542505E-6	-100.303046
1.54255E-6	-120
1.542595E-6	-120
1.54264E-6	-120
1.542685E-6	-120
1.54273E-6	-91.866859
1.542775E-6	-85.991168
1.54282E-6	-80.815503
1.542865E-6	-79.058784
1.54291E-6	-78.78112
1.542955E-6	-78.582368
1.543E-6	-78.850556
1.543045E-6	-78.690233
1.54309E-6	-79.139963
1.543135E-6	-79.450041
1.54318E-6	-81.066267
1.543225E-6	-84.144265
1.54327E-6	-87.461776
1.543315E-6	-120
1.54336E-6	-120
1.543405E-6	-120
1.54345E-6	-120
1.543495E-6	-120
1.54354E-6	-96.081831
1.543585E-6	-82.595584
1.54363E-6	-80.150229
1.543675E-6	-79.333014
1.54372E-6	-78.579235
1.543765E-6	-78.897471
1.54381E-6	-78.732194
1.543855E-6	-78.751699
1.5439E-6	-78.754958
1.543945E-6	-79.197344
1.54399E-6	-81.54902
1.544035E-6	-86.011923
1.54408E-6	-95.992894
1.544125E-6	-98.498578
1.54417E-6	-120
1.544215E-6	-120
1.54426E-6	-120
1.544305E-6	-99.492337
1.54435E-6	-88.236193
1.544395E-6	-82.075383
1.54444E-6	-79.669786
1.544485E-6	-78.674202
1.54453E-6	-78.748442
1.544575E-6	-78.271053
1.54462E-6	-78.38632
1.544665E-6	-78.635966
1.54471E-6	-78.671002
1.544755E-6	-79.157813
1.5448E-6	-82.03981
1.544845E-6	-88.365404
1.54489E-6	-88.380334
1.544935E-6	-90.820746
1.54498E-6	-94.517335
1.545025E-6	-84.992148
1.54507E-6	-80.38484
1.545115E-6	-68.099486
1.54516E-6	-52.604277
1.545205E-6	-46.53647
1.54525E-6	-43.78616
1.545295E-6	-43.300326
1.54534E-6	-43.221194
1.545385E-6	-43.198459
1.54543E-6	-43.226668
1.545475E-6	-43.627105
1.54552E-6	-45.628839
1.545565E-6	-50.268259
1.54561E-6	-59.943906
1.545655E-6	-68.687022
1.5457E-6	-76.243364
1.545745E-6	-81.554607
1.54579E-6	-88.87395
1.545835E-6	-90.645935
1.54588E-6	-120
1.545925E-6	-120
1.54597E-6	-82.561768
1.546015E-6	-80.262719
1.54606E-6	-78.557372
1.546105E-6	-77.825161
1.54615E-6	-77.846268
1.546195E-6	-78.44057
1.54624E-6	-77.430418
1.546285E-6	-78.610661
1.54633E-6	-79.055289
1.546375E-6	-80.232833
1.54642E-6	-83.799681
1.546465E-6	-94.430947
1.54651E-6	-98.359447
1.546555E-6	-92.79262
1.5466E-6	-120
1.546645E-6	-120
1.54669E-6	-99.965395
1.546735E-6	-86.219657
1.54678E-6	-82.716462
1.546825E-6	-79.259153
1.54687E-6	-78.790972
1.546915E-6	-78.703101
1.54696E-6	-78.279812
1.547005E-6	-78.716007
1.54705E-6	-78.359447
1.547095E-6	-78.389316
1.54714E-6	-79.111554
1.547185E-6	-83.114022
1.54723E-6	-85.831931
1.547275E-6	-83.862639
1.54732E-6	-120
1.547365E-6	-120
1.54741E-6	-120
1.547455E-6	-120
1.5475E-6	-90.345161
1.547545E-6	-85.718652
1.54759E-6	-81.253443
1.547635E-6	-79.04482
1.54768E-6	-78.683813
1.547725E-6	-78.08549
1.54777E-6	-77.744323
1.547815E-6	-77.649768
1.54786E-6	-77.349462
1.547905E-6	-78.648673
1.54795E-6	-79.446217
1.547995E-6	-82.079587
1.54804E-6	-88.227522
1.548085E-6	-120
1.54813E-6	-96.511113
1.548175E-6	-120
1.54822E-6	-120
1.548265E-6	-90.883631
1.54831E-6	-87.728849
1.548355E-6	-83.767507
1.5484E-6	-80.524193
1.548445E-6	-78.8706
1.54849E-6	-78.341624
1.548535E-6	-78.44664
1.54858E-6	-78.282735
1.548625E-6	-78.368386
1.54867E-6	-78.507809
1.548715E-6	-78.471004
1.54876E-6	-80.264104
1.548805E-6	-84.087127
1.54885E-6	-91.828314
1.548895E-6	-120
1.54894E-6	-120
1.548985E-6	-98.890738
1.54903E-6	-90.438796
1.549075E-6	-120
1.54912E-6	-87.178312
1.549165E-6	-85.506759
1.54921E-6	-80.202241
1.549255E-6	-78.823973
1.5493E-6	-78.241984
1.549345E-6	-78.164455
1.54939E-6	-78.395315
1.549435E-6	-77.557229
1.54948E-6	-77.886124
1.549525E-6	-78.121974
1.54957E-6	-80.977251
1.549615E-6	-84.775558
1.54966E-6	-102.114781
1.549705E-6	-120
1.54975E-6	-105.872036
1.549795E-6	-101.540342
1.54984E-6	-85.853609
1.549885E-6	-74.490382
1.54993E-6	-58.880657
1.549975E-6	-48.754958
1.55002E-6	-44.308603
1.550065E-6	-43.202088
1.55011E-6	-43.02422
1.550155E-6	-42.994693
1.5502E-6	-42.962788
1.550245E-6	-43.033815
1.55029E-6	-43.876401
1.550335E-6	-46.831912
1.55038E-6	-53.162327
1.550425E-6	-62.313619
1.55047E-6	-71.101383
1.550515E-6	-78.53872
1.55056E-6	-82.829123
1.550605E-6	-120
1.55065E-6	-120
1.550695E-6	-90.311436
1.55074E-6	-86.585655
1.550785E-6	-80.741209
1.55083E-6	-78.890738
1.550875E-6	-78.224635
1.55092E-6	-78.326827
1.550965E-6	-78.167302
1.55101E-6	-78.416375
1.551055E-6	-77.975117
1.5511E-6	-78.027194
1.551145E-6	-79.041335
1.55119E-6	-81.430899
1.551235E-6	-84.870489
1.55128E-6	-120
1.551325E-6	-120
1.55137E-6	-120
1.551415E-6	-91.722431
1.55146E-6	-120
1.551505E-6	-120
1.55155E-6	-85.840256
1.551595E-6	-80.837567
1.55164E-6	-78.398317
1.551685E-6	-78.395315
1.55173E-6	-78.127614
1.551775E-6	-78.480176
1.55182E-6	-78.175853
1.551865E-6	-77.739159
1.55191E-6	-78.178708
1.551955E-6	-79.722428
1.552E-6	-82.809174
1.552045E-6	-87.162466
1.55209E-6	-120
1.552135E-6	-93.185778
1.55218E-6	-120
1.552225E-6	-100.204061
1.55227E-6	-120
1.552315E-6	-120
1.55236E-6	-83.674415
1.552405E-6	-80.099277
1.55245E-6	-78.285661
1.552495E-6	-78.195874
1.55254E-6	-78.005191
1.552585E-6	-78.04931
1.55263E-6	-77.572102
1.552675E-6	-77.13319
1.55272E-6	-77.512913
1.552765E-6	-79.800533
1.55281E-6	-82.751509
1.552855E-6	-89.389247
1.5529E-6	-120
1.552945E-6	-96.931463
1.55299E-6	-96.532559
1.553035E-6	-120
1.55308E-6	-120
1.553125E-6	-89.503944
1.55317E-6	-83.36959
1.553215E-6	-79.570309
1.55326E-6	-78.215987
1.553305E-6	-77.557229
1.55335E-6	-77.983298
1.553395E-6	-77.562181
1.55344E-6	-77.223908
1.553485E-6	-77.552282
1.55353E-6	-77.975117
1.553575E-6	-80.22505
1.55362E-6	-82.902214
1.553665E-6	-120
1.55371E-6	-120
1.553755E-6	-120
1.5538E-6	-120
1.553845E-6	-120
1.55389E-6	-120
1.553935E-6	-89.393022
1.55398E-6	-82.224282
1.554025E-6	-78.623295
1.55407E-6	-77.77804
1.554115E-6	-77.670039
1.55416E-6	-76.811023
1.554205E-6	-77.342391
1.55425E-6	-77.207895
1.554295E-6	-77.90485
1.55434E-6	-78.623295
1.554385E-6	-80.299322
1.55443E-6	-83.623102
1.554475E-6	-87.337683
1.55452E-6	-94.288737
1.554565E-6	-120
1.55461E-6	-120
1.554655E-6	-120
1.5547E-6	-96.036263
1.554745E-6	-89.661743
1.55479E-6	-81.794702
1.554835E-6	-78.843895
1.55488E-6	-77.988761
1.554925E-6	-77.198771
1.55497E-6	-77.690404
1.555015E-6	-77.042131
1.55506E-6	-77.328283
1.555105E-6	-76.952941
1.55515E-6	-77.994231
1.555195E-6	-80.391488
1.55524E-6	-82.936236
1.555285E-6	-93.05044
1.55533E-6	-120
1.555375E-6	-120
1.55542E-6	-120
1.555465E-6	-120
1.55551E-6	-120
1.555555E-6	-86.773673
1.5556E-6	-81.267375
1.555645E-6	-78.51089
1.55569E-6	-77.452103
1.555735E-6	-76.722325
1.55578E-6	-77.164726
1.555825E-6	-77.23998
1.55587E-6	-77.151183
1.555915E-6	-77.649768
1.55596E-6	-78.253588
1.556005E-6	-79.884296
1.55605E-6	-84.034029
1.556095E-6	-120
1.55614E-6	-98.53872
1.556185E-6	-92.506502
1.55623E-6	-120
1.556275E-6	-120
1.55632E-6	-120
1.556365E-6	-86.110112
1.55641E-6	-81.801929
1.556455E-6	-78.667805
1.5565E-6	-77.856861
1.556545E-6	-77.097427
1.55659E-6	-77.146678
1.556635E-6	-77.013652
1.55668E-6	-76.732546
1.556725E-6	-77.321246
1.55677E-6	-78.099486
1.556815E-6	-80.289098
1.55686E-6	-83.379036
1.556905E-6	-90.847585
1.55695E-6	-120
1.556995E-6	-120
1.55704E-6	-120
1.557085E-6	-120
1.55713E-6	-120
1.557175E-6	-85.15985
1.55722E-6	-81.935487
1.557265E-6	-78.677403
1.55731E-6	-77.363639
1.557355E-6	-78.880657
1.5574E-6	-77.512913
1.557445E-6	-77.749493
1.55749E-6	-77.384992
1.557535E-6	-77.113037
1.55758E-6	-77.9129
1.557625E-6	-80.418663
1.55767E-6	-85.294425
1.557715E-6	-120
1.55776E-6	-83.504704
1.557805E-6	-92.452695
1.55785E-6	-120
1.557895E-6	-120
1.55794E-6	-120
1.557985E-6	-87.92635
1.55803E-6	-81.244757
1.558075E-6	-78.501653
1.55812E-6	-76.965879
1.558165E-6	-77.099654
1.55821E-6	-77.425614
1.558255E-6	-77.307206
1.5583E-6	-76.876111
1.558345E-6	-76.942188
1.55839E-6	-77.9588
1.558435E-6	-80.381519
1.55848E-6	-83.251389
1.558525E-6	-120
1.55857E-6	-95.565805
1.558615E-6	-120
1.55866E-6	-120
1.558705E-6	-86.965879
1.55875E-6	-92.605859
1.558795E-6	-91.211337
1.55884E-6	-82.298847
1.558885E-6	-78.8706
1.55893E-6	-77.486051
1.558975E-6	-76.861328
1.55902E-6	-77.675121
1.559065E-6	-77.423214
1.55911E-6	-77.62205
1.559155E-6	-77.500682
1.5592E-6	-78.526329
1.559245E-6	-80.758758
1.55929E-6	-88.569852
1.559335E-6	-98.002448
1.55938E-6	-120
1.559425E-6	-97.522722
1.55947E-6	-95.084982
1.559515E-6	-120
1.55956E-6	-120
1.559605E-6	-86.987529
1.55965E-6	-81.31826
1.559695E-6	-79.200955
1.55974E-6	-78.136088
1.559785E-6	-77.160207
1.55983E-6	-77.171514
1.559875E-6	-77.637147
1.55992E-6	-77.950665
1.559965E-6	-78.17015
1.56001E-6	-78.690233
1.560055E-6	-80.365427
1.5601E-6	-85.184141
1.560145E-6	-101.558958
1.56019E-6	-89.027427
1.560235E-6	-120
1.56028E-6	-120
1.560325E-6	-120
1.56037E-6	-120
1.560415E-6	-91.927356
1.56046E-6	-81.497828
1.560505E-6	-79.255493
1.56055E-6	-78.389316
1.560595E-6	-78.507809
1.56064E-6	-77.996968
1.560685E-6	-78.259402
1.56073E-6	-78.498578
1.560775E-6	-78.623295
1.56082E-6	-79.104481
1.560865E-6	-81.043013
1.56091E-6	-85.609833
1.560955E-6	-91.48497
1.561E-6	-120
1.561045E-6	-120
1.56109E-6	-120
1.561135E-6	-120
1.56118E-6	-120
1.561225E-6	-90.558629
1.56127E-6	-83.132744
1.561315E-6	-79.689957
1.56136E-6	-78.934691
1.561405E-6	-78.814046
1.56145E-6	-78.968807
1.561495E-6	-78.544928
1.56154E-6	-78.320922
1.561585E-6	-78.867253
1.56163E-6	-79.115095
1.561675E-6	-81.383461
1.56172E-6	-86.11366
1.561765E-6	-91.057393
1.56181E-6	-120
1.561855E-6	-101.759393
1.5619E-6	-120
1.561945E-6	-120
1.56199E-6	-120
1.562035E-6	-91.667891
1.56208E-6	-83.495953
1.562125E-6	-80.392914
1.56217E-6	-79.058784
1.562215E-6	-79.336741
1.56226E-6	-79.344203
1.562305E-6	-79.143527
1.56235E-6	-79.469216
1.562395E-6	-78.910969
1.56244E-6	-78.972234
1.562485E-6	-81.560824
1.56253E-6	-84.93495
1.562575E-6	-101.680663
1.56262E-6	-120
1.562665E-6	-120
1.56271E-6	-120
1.562755E-6	-97.126462
1.5628E-6	-120
1.562845E-6	-120
1.56289E-6	-85.21145
1.562935E-6	-81.150914
1.56298E-6	-79.310724
1.563025E-6	-79.722428
1.56307E-6	-79.325572
1.563115E-6	-79.273825
1.56316E-6	-79.065783
1.563205E-6	-79.714287
1.56325E-6	-79.863203
1.563295E-6	-82.323989
1.56334E-6	-85.632015
1.563385E-6	-91.623484
1.56343E-6	-120
1.563475E-6	-120
1.56352E-6	-120
1.563565E-6	-101.530447
1.56361E-6	-120
1.563655E-6	-94.779472
1.5637E-6	-84.576726
1.563745E-6	-81.999018
1.56379E-6	-80.562582
1.563835E-6	-80.180456
1.56388E-6	-79.817157
1.563925E-6	-80.199966
1.56397E-6	-80.34375
1.564015E-6	-80.527134
1.56406E-6	-80.214543
1.564105E-6	-81.089646
1.56415E-6	-83.819519
1.564195E-6	-120
1.56424E-6	-120
1.564285E-6	-120
1.56433E-6	-120
1.564375E-6	-120
1.56442E-6	-95.73001
1.564465E-6	-120
1.56451E-6	-86.058987
1.564555E-6	-83.233064
1.5646E-6	-81.081282
1.564645E-6	-80.628835
1.56469E-6	-80.908185
1.564735E-6	-80.796158
1.56478E-6	-81.60145
1.564825E-6	-81.103622
1.56487E-6	-81.252284
1.564915E-6	-81.648169
1.56496E-6	-84.397346
1.565005E-6	-120
1.56505E-6	-120
1.565095E-6	-120
1.56514E-6	-90.427759
1.565185E-6	-120
1.56523E-6	-120
1.565275E-6	-88.897471
1.56532E-6	-89.726504
1.565365E-6	-83.370534
1.56541E-6	-82.037727
1.565455E-6	-81.330632
1.5655E-6	-81.644362
1.565545E-6	-81.537248
1.56559E-6	-81.02923
