Wavelength (nm)	Power (dBm)
1.525E-6	-47.715996
1.525045E-6	-47.617029
1.52509E-6	-47.530093
1.525135E-6	-47.432823
1.52518E-6	-47.33298
1.525225E-6	-47.221617
1.52527E-6	-47.142177
1.525315E-6	-47.064165
1.52536E-6	-46.978856
1.525405E-6	-46.880343
1.52545E-6	-46.794383
1.525495E-6	-46.703988
1.52554E-6	-46.633402
1.525585E-6	-46.554113
1.52563E-6	-46.462761
1.525675E-6	-46.365761
1.52572E-6	-46.300424
1.525765E-6	-46.226937
1.52581E-6	-46.169031
1.525855E-6	-46.076548
1.5259E-6	-46.018863
1.525945E-6	-45.944829
1.52599E-6	-45.86365
1.526035E-6	-45.788899
1.52608E-6	-45.75445
1.526125E-6	-45.687971
1.52617E-6	-45.589336
1.526215E-6	-45.545515
1.52626E-6	-45.491353
1.526305E-6	-45.425723
1.52635E-6	-45.370034
1.526395E-6	-45.294425
1.52644E-6	-45.228787
1.526485E-6	-45.179844
1.52653E-6	-45.127202
1.526575E-6	-45.07519
1.52662E-6	-45.01276
1.526665E-6	-44.949858
1.52671E-6	-44.914703
1.526755E-6	-44.877159
1.5268E-6	-44.821446
1.526845E-6	-44.752146
1.52689E-6	-44.736607
1.526935E-6	-44.664821
1.52698E-6	-44.636941
1.527025E-6	-44.592952
1.52707E-6	-44.563044
1.527115E-6	-44.501388
1.52716E-6	-44.462383
1.527205E-6	-44.420119
1.52725E-6	-44.365189
1.527295E-6	-44.354523
1.52734E-6	-44.326207
1.527385E-6	-44.256214
1.52743E-6	-44.246967
1.527475E-6	-44.222785
1.52752E-6	-44.19075
1.527565E-6	-44.162346
1.52761E-6	-44.146521
1.527655E-6	-44.104972
1.5277E-6	-44.059391
1.527745E-6	-44.051656
1.52779E-6	-44.028535
1.527835E-6	-44.009908
1.52788E-6	-43.944795
1.527925E-6	-43.905123
1.52797E-6	-43.885954
1.528015E-6	-43.880644
1.52806E-6	-43.881705
1.528105E-6	-43.826851
1.52815E-6	-43.839448
1.528195E-6	-43.809067
1.52824E-6	-43.800723
1.528285E-6	-43.789276
1.52833E-6	-43.763373
1.528375E-6	-43.77061
1.52842E-6	-43.741733
1.528465E-6	-43.732491
1.52851E-6	-43.704885
1.528555E-6	-43.708963
1.5286E-6	-43.698774
1.528645E-6	-43.669357
1.52869E-6	-43.637127
1.528735E-6	-43.631111
1.52878E-6	-43.623102
1.528825E-6	-43.600158
1.52887E-6	-43.610118
1.528915E-6	-43.583276
1.52896E-6	-43.565473
1.529005E-6	-43.572388
1.52905E-6	-43.581295
1.529095E-6	-43.590219
1.52914E-6	-43.551677
1.529185E-6	-43.570411
1.52923E-6	-43.529106
1.529275E-6	-43.553645
1.52932E-6	-43.542831
1.529365E-6	-43.528127
1.52941E-6	-43.52617
1.529455E-6	-43.494011
1.5295E-6	-43.482376
1.529545E-6	-43.500813
1.52959E-6	-43.495953
1.529635E-6	-43.489159
1.52968E-6	-43.481407
1.529725E-6	-43.469805
1.52977E-6	-43.474636
1.529815E-6	-43.502758
1.52986E-6	-43.505678
1.529905E-6	-43.517376
1.52995E-6	-43.488189
1.529995E-6	-43.480439
1.53004E-6	-43.500813
1.530085E-6	-43.507625
1.53013E-6	-43.500813
1.530175E-6	-43.476569
1.53022E-6	-43.477537
1.530265E-6	-43.461124
1.53031E-6	-43.479472
1.530355E-6	-43.472703
1.5304E-6	-43.478504
1.530445E-6	-43.464016
1.53049E-6	-43.474636
1.530535E-6	-43.472703
1.53058E-6	-43.504704
1.530625E-6	-43.513473
1.53067E-6	-43.511523
1.530715E-6	-43.485281
1.53076E-6	-43.511523
1.530805E-6	-43.537924
1.53085E-6	-43.538905
1.530895E-6	-43.544795
1.53094E-6	-43.534982
1.530985E-6	-43.528127
1.53103E-6	-43.542831
1.531075E-6	-43.533023
1.53112E-6	-43.553645
1.531165E-6	-43.533023
1.53121E-6	-43.558569
1.531255E-6	-43.576344
1.5313E-6	-43.59618
1.531345E-6	-43.619103
1.53139E-6	-43.629107
1.531435E-6	-43.636124
1.53148E-6	-43.64818
1.531525E-6	-43.664306
1.53157E-6	-43.680492
1.531615E-6	-43.691655
1.53166E-6	-43.693688
1.531705E-6	-43.70081
1.53175E-6	-43.698774
1.531795E-6	-43.718155
1.53184E-6	-43.743789
1.531885E-6	-43.749964
1.53193E-6	-43.746875
1.531975E-6	-43.764406
1.53202E-6	-43.794476
1.532065E-6	-43.825803
1.53211E-6	-43.838397
1.532155E-6	-43.855246
1.5322E-6	-43.889143
1.532245E-6	-43.890206
1.53229E-6	-43.909395
1.532335E-6	-43.951262
1.53238E-6	-43.975059
1.532425E-6	-43.984832
1.53247E-6	-44.002261
1.532515E-6	-44.006629
1.53256E-6	-44.036229
1.532605E-6	-44.058285
1.53265E-6	-44.078232
1.532695E-6	-44.090468
1.53274E-6	-44.109445
1.532785E-6	-44.148778
1.53283E-6	-44.17823
1.532875E-6	-44.187332
1.53292E-6	-44.22968
1.532965E-6	-44.246967
1.53301E-6	-44.281748
1.533055E-6	-44.327383
1.5331E-6	-44.348608
1.533145E-6	-44.381833
1.53319E-6	-44.408118
1.533235E-6	-44.415314
1.53328E-6	-44.45632
1.533325E-6	-44.472101
1.53337E-6	-44.503838
1.533415E-6	-44.519793
1.53346E-6	-44.535807
1.533505E-6	-44.549404
1.53355E-6	-44.63063
1.533595E-6	-44.659739
1.53364E-6	-44.691602
1.533685E-6	-44.72499
1.53373E-6	-44.763836
1.533775E-6	-44.784697
1.53382E-6	-44.835969
1.533865E-6	-44.885177
1.53391E-6	-44.914703
1.533955E-6	-44.93901
1.534E-6	-44.977095
1.534045E-6	-45.004504
1.53409E-6	-45.048721
1.534135E-6	-45.079384
1.53418E-6	-45.103227
1.534225E-6	-45.093393
1.53427E-6	-45.13853
1.534315E-6	-45.199931
1.53436E-6	-45.234582
1.534405E-6	-45.268051
1.53445E-6	-45.298836
1.534495E-6	-45.334289
1.53454E-6	-45.391022
1.534585E-6	-45.448505
1.53463E-6	-45.477534
1.534675E-6	-45.520671
1.53472E-6	-45.534628
1.534765E-6	-45.581478
1.53481E-6	-45.62091
1.534855E-6	-45.67191
1.5349E-6	-45.679933
1.534945E-6	-45.699249
1.53499E-6	-45.734887
1.535035E-6	-45.765903
1.53508E-6	-45.808707
1.535125E-6	-45.861975
1.53517E-6	-45.90405
1.535215E-6	-45.927791
1.53526E-6	-45.956795
1.535305E-6	-46.003263
1.53535E-6	-46.074789
1.535395E-6	-46.122543
1.53544E-6	-46.147513
1.535485E-6	-46.169031
1.53553E-6	-46.208759
1.535575E-6	-46.254349
1.53562E-6	-46.29117
1.535665E-6	-46.304131
1.53571E-6	-46.320853
1.535755E-6	-46.341378
1.5358E-6	-46.38461
1.535845E-6	-46.414941
1.53589E-6	-46.451236
1.535935E-6	-46.487837
1.53598E-6	-46.518899
1.536025E-6	-46.556077
1.53607E-6	-46.587634
1.536115E-6	-46.649435
1.53616E-6	-46.687752
1.536205E-6	-46.712128
1.53625E-6	-46.732546
1.536295E-6	-46.751005
1.53634E-6	-46.802695
1.536385E-6	-46.834007
1.53643E-6	-46.857113
1.536475E-6	-46.865546
1.53652E-6	-46.869769
1.536565E-6	-46.895191
1.53661E-6	-46.92718
1.536655E-6	-46.946486
1.5367E-6	-46.983191
1.536745E-6	-46.994045
1.53679E-6	-47.013652
1.536835E-6	-47.061956
1.53688E-6	-47.10411
1.536925E-6	-47.142177
1.53697E-6	-47.157949
1.537015E-6	-47.16925
1.53706E-6	-47.191941
1.537105E-6	-47.2262
1.53715E-6	-47.23998
1.537195E-6	-47.253804
1.53724E-6	-47.253804
1.537285E-6	-47.249191
1.53733E-6	-47.263044
1.537375E-6	-47.290884
1.53742E-6	-47.311881
1.537465E-6	-47.330631
1.53751E-6	-47.32359
1.537555E-6	-47.330631
1.5376E-6	-47.375489
1.537645E-6	-47.406451
1.53769E-6	-47.437635
1.537735E-6	-47.456937
1.53778E-6	-47.459355
1.537825E-6	-47.476325
1.53787E-6	-47.488487
1.537915E-6	-47.500682
1.53796E-6	-47.500682
1.538005E-6	-47.486051
1.53805E-6	-47.488487
1.538095E-6	-47.498241
1.53814E-6	-47.493361
1.538185E-6	-47.515363
1.53823E-6	-47.522722
1.538275E-6	-47.500682
1.53832E-6	-47.515363
1.538365E-6	-47.532553
1.53841E-6	-47.557229
1.538455E-6	-47.589518
1.5385E-6	-47.594508
1.538545E-6	-47.607005
1.53859E-6	-47.597004
1.538635E-6	-47.602002
1.53868E-6	-47.614521
1.538725E-6	-47.634627
1.53877E-6	-47.617029
1.538815E-6	-47.589518
1.53886E-6	-47.589518
1.538905E-6	-47.572102
1.53895E-6	-47.577071
1.538995E-6	-47.582046
1.53904E-6	-47.577071
1.539085E-6	-47.559704
1.53913E-6	-47.582046
1.539175E-6	-47.589518
1.53922E-6	-47.619539
1.539265E-6	-47.617029
1.53931E-6	-47.619539
1.539355E-6	-47.612014
1.5394E-6	-47.617029
1.539445E-6	-47.637147
1.53949E-6	-47.624563
1.539535E-6	-47.587026
1.53958E-6	-47.587026
1.539625E-6	-47.559704
1.53967E-6	-47.562181
1.539715E-6	-47.564659
1.53976E-6	-47.535014
1.539805E-6	-47.542406
1.53985E-6	-47.539941
1.539895E-6	-47.554755
1.53994E-6	-47.544873
1.539985E-6	-47.537477
1.54003E-6	-47.539941
1.540075E-6	-47.549811
1.54012E-6	-47.557229
1.540165E-6	-47.547342
1.54021E-6	-47.552282
1.540255E-6	-47.549811
1.5403E-6	-47.522722
1.540345E-6	-47.517814
1.54039E-6	-47.500682
1.540435E-6	-47.473897
1.54048E-6	-47.481185
1.540525E-6	-47.444863
1.54057E-6	-47.444863
1.540615E-6	-47.423214
1.54066E-6	-47.437635
1.540705E-6	-47.432823
1.54075E-6	-47.435228
1.540795E-6	-47.435228
1.54084E-6	-47.442452
1.540885E-6	-47.454519
1.54093E-6	-47.456937
1.540975E-6	-47.444863
1.54102E-6	-47.449688
1.541065E-6	-47.428016
1.54111E-6	-47.420815
1.541155E-6	-47.404061
1.5412E-6	-47.387371
1.541245E-6	-47.366007
1.54129E-6	-47.328283
1.541335E-6	-47.328283
1.54138E-6	-47.295541
1.541425E-6	-47.328283
1.54147E-6	-47.316561
1.541515E-6	-47.318903
1.54156E-6	-47.309543
1.541605E-6	-47.342391
1.54165E-6	-47.328283
1.541695E-6	-47.328283
1.54174E-6	-47.340036
1.541785E-6	-47.328283
1.54183E-6	-47.311881
1.541875E-6	-47.293212
1.54192E-6	-47.309543
1.541965E-6	-47.307206
1.54201E-6	-47.256112
1.542055E-6	-47.251497
1.5421E-6	-47.221617
1.542145E-6	-47.221617
1.54219E-6	-47.219327
1.542235E-6	-47.207895
1.54228E-6	-47.203331
1.542325E-6	-47.203331
1.54237E-6	-47.212464
1.542415E-6	-47.233085
1.54246E-6	-47.256112
1.542505E-6	-47.246886
1.54255E-6	-47.233085
1.542595E-6	-47.221617
1.54264E-6	-47.21475
1.542685E-6	-47.21475
1.54273E-6	-47.212464
1.542775E-6	-47.191941
1.54282E-6	-47.162466
1.542865E-6	-47.146678
1.54291E-6	-47.13319
1.542955E-6	-47.146678
1.543E-6	-47.151183
1.543045E-6	-47.135435
1.54309E-6	-47.130946
1.543135E-6	-47.130946
1.54318E-6	-47.151183
1.543225E-6	-47.18285
1.54327E-6	-47.194216
1.543315E-6	-47.187393
1.54336E-6	-47.173779
1.543405E-6	-47.157949
1.54345E-6	-47.166988
1.543495E-6	-47.189666
1.54354E-6	-47.157949
1.543585E-6	-47.119745
1.54363E-6	-47.10634
1.543675E-6	-47.097427
1.54372E-6	-47.119745
1.543765E-6	-47.110804
1.54381E-6	-47.113037
1.543855E-6	-47.10411
1.5439E-6	-47.097427
1.543945E-6	-47.130946
1.54399E-6	-47.128704
1.544035E-6	-47.185121
1.54408E-6	-47.166988
1.544125E-6	-47.160207
1.54417E-6	-47.162466
1.544215E-6	-47.157949
1.54426E-6	-47.191941
1.544305E-6	-47.178312
1.54435E-6	-47.151183
1.544395E-6	-47.124222
1.54444E-6	-47.119745
1.544485E-6	-47.126462
1.54453E-6	-47.126462
1.544575E-6	-47.124222
1.54462E-6	-47.115272
1.544665E-6	-47.117508
1.54471E-6	-47.117508
1.544755E-6	-47.160207
1.5448E-6	-47.173779
1.544845E-6	-47.185121
1.54489E-6	-47.180581
1.544935E-6	-47.171514
1.54498E-6	-47.191941
1.545025E-6	-47.18285
1.54507E-6	-47.097427
1.545115E-6	-44.936303
1.54516E-6	-37.155693
1.545205E-6	-32.697832
1.54525E-6	-30.754106
1.545295E-6	-30.313303
1.54534E-6	-30.24844
1.545385E-6	-30.197239
1.54543E-6	-30.176835
1.545475E-6	-30.647447
1.54552E-6	-32.762161
1.545565E-6	-37.637147
1.54561E-6	-44.427335
1.545655E-6	-46.88458
1.5457E-6	-47.160207
1.545745E-6	-47.221617
1.54579E-6	-47.246886
1.545835E-6	-47.256112
1.54588E-6	-47.246886
1.545925E-6	-47.23998
1.54597E-6	-47.21475
1.546015E-6	-47.207895
1.54606E-6	-47.210179
1.546105E-6	-47.212464
1.54615E-6	-47.207895
1.546195E-6	-47.196493
1.54624E-6	-47.203331
1.546285E-6	-47.212464
1.54633E-6	-47.251497
1.546375E-6	-47.276942
1.54642E-6	-47.283907
1.546465E-6	-47.297871
1.54651E-6	-47.309543
1.546555E-6	-47.316561
1.5466E-6	-47.32359
1.546645E-6	-47.328283
1.54669E-6	-47.318903
1.546735E-6	-47.307206
1.54678E-6	-47.286231
1.546825E-6	-47.269987
1.54687E-6	-47.288557
1.546915E-6	-47.290884
1.54696E-6	-47.272304
1.547005E-6	-47.269987
1.54705E-6	-47.290884
1.547095E-6	-47.31422
1.54714E-6	-47.328283
1.547185E-6	-47.356545
1.54723E-6	-47.366007
1.547275E-6	-47.382615
1.54732E-6	-47.384992
1.547365E-6	-47.394516
1.54741E-6	-47.389752
1.547455E-6	-47.401673
1.5475E-6	-47.387371
1.547545E-6	-47.375489
1.54759E-6	-47.354183
1.547635E-6	-47.347104
1.54768E-6	-47.347104
1.547725E-6	-47.351822
1.54777E-6	-47.33298
1.547815E-6	-47.368375
1.54786E-6	-47.368375
1.547905E-6	-47.392133
1.54795E-6	-47.399286
1.547995E-6	-47.423214
1.54804E-6	-47.447275
1.548085E-6	-47.452103
1.54813E-6	-47.478754
1.548175E-6	-47.452103
1.54822E-6	-47.47147
1.548265E-6	-47.454519
1.54831E-6	-47.461776
1.548355E-6	-47.437635
1.5484E-6	-47.440043
1.548445E-6	-47.418418
1.54849E-6	-47.401673
1.548535E-6	-47.416022
1.54858E-6	-47.420815
1.548625E-6	-47.432823
1.54867E-6	-47.437635
1.548715E-6	-47.428016
1.54876E-6	-47.459355
1.548805E-6	-47.478754
1.54885E-6	-47.510464
1.548895E-6	-47.522722
1.54894E-6	-47.525177
1.548985E-6	-47.522722
1.54903E-6	-47.512913
1.549075E-6	-47.517814
1.54912E-6	-47.527635
1.549165E-6	-47.493361
1.54921E-6	-47.478754
1.549255E-6	-47.473897
1.5493E-6	-47.464197
1.549345E-6	-47.461776
1.54939E-6	-47.46662
1.549435E-6	-47.476325
1.54948E-6	-47.469044
1.549525E-6	-47.483618
1.54957E-6	-47.512913
1.549615E-6	-47.530093
1.54966E-6	-47.564659
1.549705E-6	-47.56962
1.54975E-6	-47.554755
1.549795E-6	-47.544873
1.54984E-6	-47.515363
1.549885E-6	-47.230789
1.54993E-6	-42.064191
1.549975E-6	-34.494048
1.55002E-6	-31.106423
1.550065E-6	-30.07314
1.55011E-6	-29.875846
1.550155E-6	-29.842212
1.5502E-6	-29.833845
1.550245E-6	-29.892761
1.55029E-6	-30.727323
1.550335E-6	-33.686577
1.55038E-6	-39.657727
1.550425E-6	-46.219657
1.55047E-6	-47.370745
1.550515E-6	-47.535014
1.55056E-6	-47.557229
1.550605E-6	-47.564659
1.55065E-6	-47.577071
1.550695E-6	-47.582046
1.55074E-6	-47.562181
1.550785E-6	-47.527635
1.55083E-6	-47.508016
1.550875E-6	-47.503126
1.55092E-6	-47.512913
1.550965E-6	-47.515363
1.55101E-6	-47.512913
1.551055E-6	-47.493361
1.5511E-6	-47.508016
1.551145E-6	-47.527635
1.55119E-6	-47.579558
1.551235E-6	-47.594508
1.55128E-6	-47.589518
1.551325E-6	-47.579558
1.55137E-6	-47.587026
1.551415E-6	-47.579558
1.55146E-6	-47.592012
1.551505E-6	-47.589518
1.55155E-6	-47.554755
1.551595E-6	-47.512913
1.55164E-6	-47.500682
1.551685E-6	-47.50557
1.55173E-6	-47.517814
1.551775E-6	-47.515363
1.55182E-6	-47.508016
1.551865E-6	-47.498241
1.55191E-6	-47.50557
1.551955E-6	-47.544873
1.552E-6	-47.579558
1.552045E-6	-47.597004
1.55209E-6	-47.582046
1.552135E-6	-47.584535
1.55218E-6	-47.587026
1.552225E-6	-47.589518
1.55227E-6	-47.604503
1.552315E-6	-47.582046
1.55236E-6	-47.542406
1.552405E-6	-47.493361
1.55245E-6	-47.488487
1.552495E-6	-47.4958
1.55254E-6	-47.490923
1.552585E-6	-47.490923
1.55263E-6	-47.486051
1.552675E-6	-47.490923
1.55272E-6	-47.498241
1.552765E-6	-47.537477
1.55281E-6	-47.584535
1.552855E-6	-47.567139
1.5529E-6	-47.572102
1.552945E-6	-47.577071
1.55299E-6	-47.584535
1.553035E-6	-47.584535
1.55308E-6	-47.582046
1.553125E-6	-47.554755
1.55317E-6	-47.530093
1.553215E-6	-47.4958
1.55326E-6	-47.493361
1.553305E-6	-47.498241
1.55335E-6	-47.493361
1.553395E-6	-47.486051
1.55344E-6	-47.47147
1.553485E-6	-47.481185
1.55353E-6	-47.512913
1.553575E-6	-47.539941
1.55362E-6	-47.564659
1.553665E-6	-47.557229
1.55371E-6	-47.564659
1.553755E-6	-47.56962
1.5538E-6	-47.584535
1.553845E-6	-47.589518
1.55389E-6	-47.567139
1.553935E-6	-47.557229
1.55398E-6	-47.512913
1.554025E-6	-47.503126
1.55407E-6	-47.4958
1.554115E-6	-47.488487
1.55416E-6	-47.464197
1.554205E-6	-47.464197
1.55425E-6	-47.47147
1.554295E-6	-47.486051
1.55434E-6	-47.490923
1.554385E-6	-47.525177
1.55443E-6	-47.544873
1.554475E-6	-47.557229
1.55452E-6	-47.572102
1.554565E-6	-47.572102
1.55461E-6	-47.579558
1.554655E-6	-47.559704
1.5547E-6	-47.554755
1.554745E-6	-47.542406
1.55479E-6	-47.508016
1.554835E-6	-47.490923
1.55488E-6	-47.473897
1.554925E-6	-47.461776
1.55497E-6	-47.461776
1.555015E-6	-47.454519
1.55506E-6	-47.459355
1.555105E-6	-47.469044
1.55515E-6	-47.481185
1.555195E-6	-47.525177
1.55524E-6	-47.530093
1.555285E-6	-47.542406
1.55533E-6	-47.557229
1.555375E-6	-47.567139
1.55542E-6	-47.56962
1.555465E-6	-47.562181
1.55551E-6	-47.554755
1.555555E-6	-47.537477
1.5556E-6	-47.510464
1.555645E-6	-47.481185
1.55569E-6	-47.464197
1.555735E-6	-47.456937
1.55578E-6	-47.46662
1.555825E-6	-47.461776
1.55587E-6	-47.478754
1.555915E-6	-47.481185
1.55596E-6	-47.490923
1.556005E-6	-47.527635
1.55605E-6	-47.554755
1.556095E-6	-47.577071
1.55614E-6	-47.582046
1.556185E-6	-47.582046
1.55623E-6	-47.579558
1.556275E-6	-47.582046
1.55632E-6	-47.582046
1.556365E-6	-47.56962
1.55641E-6	-47.530093
1.556455E-6	-47.500682
1.5565E-6	-47.486051
1.556545E-6	-47.476325
1.55659E-6	-47.483618
1.556635E-6	-47.498241
1.55668E-6	-47.508016
1.556725E-6	-47.50557
1.55677E-6	-47.530093
1.556815E-6	-47.564659
1.55686E-6	-47.602002
1.556905E-6	-47.619539
1.55695E-6	-47.632109
1.556995E-6	-47.624563
1.55704E-6	-47.62205
1.557085E-6	-47.629592
1.55713E-6	-47.629592
1.557175E-6	-47.632109
1.55722E-6	-47.584535
1.557265E-6	-47.559704
1.55731E-6	-47.537477
1.557355E-6	-47.547342
1.5574E-6	-47.559704
1.557445E-6	-47.562181
1.55749E-6	-47.564659
1.557535E-6	-47.579558
1.55758E-6	-47.594508
1.557625E-6	-47.647241
1.55767E-6	-47.685304
1.557715E-6	-47.698066
1.55776E-6	-47.700623
1.557805E-6	-47.692957
1.55785E-6	-47.710866
1.557895E-6	-47.71343
1.55794E-6	-47.726276
1.557985E-6	-47.708303
1.55803E-6	-47.659892
1.558075E-6	-47.642191
1.55812E-6	-47.632109
1.558165E-6	-47.649768
1.55821E-6	-47.659892
1.558255E-6	-47.6675
1.5583E-6	-47.659892
1.558345E-6	-47.670039
1.55839E-6	-47.708303
1.558435E-6	-47.765041
1.55848E-6	-47.804155
1.558525E-6	-47.830428
1.55857E-6	-47.840982
1.558615E-6	-47.827793
1.55866E-6	-47.848914
1.558705E-6	-47.864822
1.55875E-6	-47.872798
1.558795E-6	-47.85421
1.55884E-6	-47.817271
1.558885E-6	-47.788467
1.55893E-6	-47.791078
1.558975E-6	-47.806775
1.55902E-6	-47.825161
1.559065E-6	-47.825161
1.55911E-6	-47.825161
1.559155E-6	-47.833064
1.5592E-6	-47.883456
1.559245E-6	-47.956087
1.55929E-6	-47.991495
1.559335E-6	-47.999707
1.55938E-6	-48.007935
1.559425E-6	-48.021683
1.55947E-6	-48.038238
1.559515E-6	-48.04931
1.55956E-6	-48.068754
1.559605E-6	-48.043771
1.55965E-6	-48.01893
1.559695E-6	-48.007935
1.55974E-6	-48.002448
1.559785E-6	-48.016179
1.55983E-6	-48.027194
1.559875E-6	-48.052082
1.55992E-6	-48.043771
1.559965E-6	-48.06041
1.56001E-6	-48.116341
1.560055E-6	-48.164455
1.5601E-6	-48.198741
1.560145E-6	-48.233301
1.56019E-6	-48.241984
1.560235E-6	-48.271053
1.56028E-6	-48.279812
1.560325E-6	-48.294449
1.56037E-6	-48.306195
1.560415E-6	-48.294449
1.56046E-6	-48.250684
1.560505E-6	-48.253588
1.56055E-6	-48.265224
1.560595E-6	-48.265224
1.56064E-6	-48.27689
1.560685E-6	-48.297383
1.56073E-6	-48.303256
1.560775E-6	-48.341624
1.56082E-6	-48.383326
1.560865E-6	-48.449678
1.56091E-6	-48.486301
1.560955E-6	-48.498578
1.561E-6	-48.520147
1.561045E-6	-48.560489
1.56109E-6	-48.563608
1.561135E-6	-48.591778
1.56118E-6	-48.582368
1.561225E-6	-48.569852
1.56127E-6	-48.566729
1.561315E-6	-48.566729
1.56136E-6	-48.563608
1.561405E-6	-48.576105
1.56145E-6	-48.588639
1.561495E-6	-48.601209
1.56154E-6	-48.629625
1.561585E-6	-48.667805
1.56163E-6	-48.693447
1.561675E-6	-48.751699
1.56172E-6	-48.794261
1.561765E-6	-48.814046
1.56181E-6	-48.85389
1.561855E-6	-48.887375
1.5619E-6	-48.897471
1.561945E-6	-48.910969
1.56199E-6	-48.91435
1.562035E-6	-48.91435
1.56208E-6	-48.904215
1.562125E-6	-48.900841
1.56217E-6	-48.900841
1.562215E-6	-48.910969
1.56226E-6	-48.9279
1.562305E-6	-48.938091
1.56235E-6	-48.968807
1.562395E-6	-48.999743
1.56244E-6	-49.034376
1.562485E-6	-49.086848
1.56253E-6	-49.136402
1.562575E-6	-49.168559
1.56262E-6	-49.211808
1.562665E-6	-49.248181
1.56271E-6	-49.266483
1.562755E-6	-49.28118
1.5628E-6	-49.28118
1.562845E-6	-49.295927
1.56289E-6	-49.284862
1.562935E-6	-49.266483
1.56298E-6	-49.277501
1.563025E-6	-49.288547
1.56307E-6	-49.303319
1.563115E-6	-49.333014
1.56316E-6	-49.359166
1.563205E-6	-49.381707
1.56325E-6	-49.427144
1.563295E-6	-49.480761
1.56334E-6	-49.527251
1.563385E-6	-49.578184
1.56343E-6	-49.605859
