Wavelength (nm)	Power (dBm)
1.525E-6	-71.562068
1.525045E-6	-71.554607
1.52509E-6	-71.85486
1.525135E-6	-73.897658
1.52518E-6	-77.692957
1.525225E-6	-81.309444
1.52527E-6	-83.538905
1.525315E-6	-85.080783
1.52536E-6	-85.958508
1.525405E-6	-84.66355
1.52545E-6	-84.956651
1.525495E-6	-76.710091
1.52554E-6	-72.856702
1.525585E-6	-70.950682
1.52563E-6	-70.336236
1.525675E-6	-70.068284
1.52572E-6	-69.982663
1.525765E-6	-69.858997
1.52581E-6	-69.657727
1.525855E-6	-69.854795
1.5259E-6	-71.396021
1.525945E-6	-75.030704
1.52599E-6	-79.75925
1.526035E-6	-83.014645
1.52608E-6	-83.655227
1.526125E-6	-85.50059
1.52617E-6	-85.096201
1.526215E-6	-84.580465
1.52626E-6	-76.671577
1.526305E-6	-72.061398
1.52635E-6	-69.685915
1.526395E-6	-68.917733
1.52644E-6	-68.725712
1.526485E-6	-68.582368
1.52653E-6	-68.53252
1.526575E-6	-68.410347
1.52662E-6	-68.554258
1.526665E-6	-69.734667
1.52671E-6	-72.669633
1.526755E-6	-78.127614
1.5268E-6	-82.192508
1.526845E-6	-83.907258
1.52689E-6	-85.846927
1.526935E-6	-86.129663
1.52698E-6	-84.779472
1.527025E-6	-78.738686
1.52707E-6	-71.687703
1.527115E-6	-68.807441
1.52716E-6	-67.687854
1.527205E-6	-67.428016
1.52725E-6	-67.382615
1.527295E-6	-67.31422
1.52734E-6	-67.233085
1.527385E-6	-67.295541
1.52743E-6	-68.178708
1.527475E-6	-70.442642
1.52752E-6	-75.350636
1.527565E-6	-79.558524
1.52761E-6	-84.047243
1.527655E-6	-83.630109
1.5277E-6	-85.970512
1.527745E-6	-84.029633
1.52779E-6	-80.34234
1.527835E-6	-72.276049
1.52788E-6	-68.53872
1.527925E-6	-66.861328
1.52797E-6	-66.464684
1.528015E-6	-66.382722
1.52806E-6	-66.341378
1.528105E-6	-66.320853
1.52815E-6	-66.311555
1.528195E-6	-66.848697
1.52824E-6	-68.843895
1.528285E-6	-72.386737
1.52833E-6	-78.693447
1.528375E-6	-81.550261
1.52842E-6	-83.265183
1.528465E-6	-83.708963
1.52851E-6	-86.78816
1.528555E-6	-81.834273
1.5286E-6	-73.318938
1.528645E-6	-68.513973
1.52869E-6	-66.320853
1.528735E-6	-65.757719
1.52878E-6	-65.655908
1.528825E-6	-65.646335
1.52887E-6	-65.534628
1.528915E-6	-65.536182
1.52896E-6	-65.787252
1.529005E-6	-67.309543
1.52905E-6	-70.354104
1.529095E-6	-75.772461
1.52914E-6	-80.628333
1.529185E-6	-83.836295
1.52923E-6	-84.255057
1.529275E-6	-81.076827
1.52932E-6	-73.984832
1.529365E-6	-59.115095
1.52941E-6	-47.964232
1.529455E-6	-42.950777
1.5295E-6	-41.397219
1.529545E-6	-40.977795
1.52959E-6	-40.922663
1.529635E-6	-40.828622
1.52968E-6	-40.814455
1.529725E-6	-41.588909
1.52977E-6	-44.487941
1.529815E-6	-50.62432
1.52986E-6	-62.037033
1.529905E-6	-69.511699
1.52995E-6	-75.717032
1.529995E-6	-79.722428
1.53004E-6	-83.102473
1.530085E-6	-83.2468
1.53013E-6	-78.315025
1.530175E-6	-70.48274
1.53022E-6	-66.447401
1.530265E-6	-65.113083
1.53031E-6	-64.719837
1.530355E-6	-64.689045
1.5304E-6	-64.63063
1.530445E-6	-64.650859
1.53049E-6	-64.650859
1.530535E-6	-65.247648
1.53058E-6	-67.265357
1.530625E-6	-71.266794
1.53067E-6	-76.895191
1.530715E-6	-81.412223
1.53076E-6	-83.356401
1.530805E-6	-82.404077
1.53085E-6	-79.649707
1.530895E-6	-70.312836
1.53094E-6	-53.713046
1.530985E-6	-45.15985
1.53103E-6	-42.036338
1.531075E-6	-41.187866
1.53112E-6	-41.006721
1.531165E-6	-40.942581
1.53121E-6	-40.881502
1.531255E-6	-41.030882
1.5313E-6	-42.25556
1.531345E-6	-46.03452
1.53139E-6	-53.753055
1.531435E-6	-62.884458
1.53148E-6	-70.769115
1.531525E-6	-77.203331
1.53157E-6	-80.422012
1.531615E-6	-82.43516
1.53166E-6	-81.231474
1.531705E-6	-74.459957
1.53175E-6	-68.804142
1.531795E-6	-65.57677
1.53184E-6	-64.667365
1.531885E-6	-64.444219
1.53193E-6	-64.445428
1.531975E-6	-64.434563
1.53202E-6	-64.375882
1.532065E-6	-64.525945
1.53211E-6	-65.400047
1.532155E-6	-67.872798
1.5322E-6	-72.382225
1.532245E-6	-79.0309
1.53229E-6	-81.522423
1.532335E-6	-82.85335
1.53238E-6	-81.464843
1.532425E-6	-76.540385
1.53247E-6	-65.746288
1.532515E-6	-50.918905
1.53256E-6	-43.964226
1.532605E-6	-41.636126
1.53265E-6	-41.05075
1.532695E-6	-41.001795
1.53274E-6	-41.002889
1.532785E-6	-41.010007
1.53283E-6	-41.367961
1.532875E-6	-43.126494
1.53292E-6	-47.547342
1.532965E-6	-56.369524
1.53301E-6	-65.276825
1.533055E-6	-72.533658
1.5331E-6	-78.353498
1.533145E-6	-81.28719
1.53319E-6	-81.391232
1.533235E-6	-81.678745
1.53328E-6	-73.442855
1.533325E-6	-68.492436
1.53337E-6	-65.823623
1.533415E-6	-65.103227
1.53346E-6	-64.9026
1.533505E-6	-64.971634
1.53355E-6	-65.055671
1.533595E-6	-65.089186
1.53364E-6	-65.389519
1.533685E-6	-66.462761
1.53373E-6	-69.351678
1.533775E-6	-73.949105
1.53382E-6	-79.139963
1.533865E-6	-83.118472
1.53391E-6	-82.57825
1.533955E-6	-81.505192
1.534E-6	-76.051982
1.534045E-6	-63.870043
1.53409E-6	-49.892761
1.534135E-6	-43.420841
1.53418E-6	-41.360826
1.534225E-6	-40.921052
1.53427E-6	-40.931265
1.534315E-6	-40.988142
1.53436E-6	-41.114835
1.534405E-6	-41.622853
1.53445E-6	-43.802807
1.534495E-6	-49.161392
1.53454E-6	-58.741935
1.534585E-6	-66.957249
1.53463E-6	-74.14201
1.534675E-6	-79.370422
1.53472E-6	-81.069599
1.534765E-6	-82.476442
1.53481E-6	-81.978422
1.534855E-6	-74.235435
1.5349E-6	-69.427144
1.534945E-6	-67.020208
1.53499E-6	-66.507225
1.535035E-6	-66.460838
1.53508E-6	-66.534514
1.535125E-6	-66.478175
1.53517E-6	-66.607474
1.535215E-6	-66.85922
1.53526E-6	-68.016179
1.535305E-6	-70.850754
1.53535E-6	-75.831931
1.535395E-6	-80.282604
1.53544E-6	-83.561527
1.535485E-6	-83.114022
1.53553E-6	-80.86504
1.535575E-6	-75.777385
1.53562E-6	-62.786016
1.535665E-6	-49.488475
1.53571E-6	-43.257821
1.535755E-6	-41.305336
1.5358E-6	-40.950141
1.535845E-6	-40.929113
1.53589E-6	-41.040805
1.535935E-6	-41.13002
1.53598E-6	-41.726307
1.536025E-6	-44.061603
1.53607E-6	-49.013563
1.536115E-6	-59.503944
1.53616E-6	-67.68021
1.536205E-6	-74.614263
1.53625E-6	-79.299621
1.536295E-6	-82.783542
1.53634E-6	-83.123819
1.536385E-6	-83.236723
1.53643E-6	-74.837291
1.536475E-6	-70.686438
1.53652E-6	-68.422411
1.536565E-6	-67.736579
1.53661E-6	-67.718564
1.536655E-6	-67.705742
1.5367E-6	-67.867479
1.536745E-6	-67.770236
1.53679E-6	-67.988761
1.536835E-6	-69.28118
1.53688E-6	-72.064191
1.536925E-6	-76.855008
1.53697E-6	-81.262726
1.537015E-6	-83.132744
1.53706E-6	-83.226668
1.537105E-6	-81.871535
1.53715E-6	-75.4546
1.537195E-6	-62.935383
1.53724E-6	-49.453869
1.537285E-6	-43.257821
1.53733E-6	-41.27203
1.537375E-6	-40.860273
1.53742E-6	-40.849169
1.537465E-6	-40.885228
1.53751E-6	-40.90658
1.537555E-6	-41.388242
1.5376E-6	-43.65926
1.537645E-6	-49.200955
1.53769E-6	-59.222688
1.537735E-6	-67.510464
1.53778E-6	-74.30392
1.537825E-6	-79.277501
1.53787E-6	-81.458762
1.537915E-6	-82.683307
1.53796E-6	-82.121854
1.538005E-6	-76.169031
1.53805E-6	-71.317671
1.538095E-6	-69.186527
1.53814E-6	-68.492436
1.538185E-6	-68.41336
1.53823E-6	-68.374356
1.538275E-6	-68.303256
1.53832E-6	-68.389316
1.538365E-6	-68.471004
1.53841E-6	-69.558524
1.538455E-6	-72.123979
1.5385E-6	-77.117508
1.538545E-6	-81.30006
1.53859E-6	-84.100504
1.538635E-6	-83.759243
1.53868E-6	-81.047432
1.538725E-6	-76.071273
1.53877E-6	-64.387793
1.538815E-6	-50.597326
1.53886E-6	-43.810111
1.538905E-6	-41.593294
1.53895E-6	-41.071266
1.538995E-6	-40.999608
1.53904E-6	-40.9442
1.539085E-6	-40.9232
1.53913E-6	-41.302404
1.539175E-6	-43.332013
1.53922E-6	-48.377344
1.539265E-6	-58.038238
1.53931E-6	-66.458916
1.539355E-6	-73.897658
1.5394E-6	-79.550685
1.539445E-6	-82.501092
1.53949E-6	-82.898826
1.539535E-6	-82.558635
1.53958E-6	-76.320853
1.539625E-6	-71.41102
1.53967E-6	-69.161392
1.539715E-6	-68.288588
1.53976E-6	-68.155925
1.539805E-6	-68.082696
1.53985E-6	-68.130437
1.539895E-6	-68.06041
1.53994E-6	-68.291518
1.539985E-6	-69.139963
1.54003E-6	-71.688344
1.540075E-6	-76.399749
1.54012E-6	-80.788339
1.540165E-6	-82.895441
1.54021E-6	-83.238553
1.540255E-6	-82.507276
1.5403E-6	-78.607508
1.540345E-6	-68.127614
1.54039E-6	-51.685782
1.540435E-6	-44.32856
1.54048E-6	-41.723077
1.540525E-6	-41.064602
1.54057E-6	-40.90658
1.540615E-6	-40.810266
1.54066E-6	-40.810266
1.540705E-6	-41.061828
1.54075E-6	-42.824127
1.540795E-6	-47.373117
1.54084E-6	-56.259853
1.540885E-6	-65.212892
1.54093E-6	-72.616159
1.540975E-6	-78.294449
1.54102E-6	-81.640559
1.541065E-6	-82.647206
1.54111E-6	-82.795926
1.541155E-6	-78.31208
1.5412E-6	-71.405014
1.541245E-6	-68.797552
1.54129E-6	-67.703182
1.541335E-6	-67.473897
1.54138E-6	-67.420815
1.541425E-6	-67.413627
1.54147E-6	-67.456937
1.541515E-6	-67.547342
1.54156E-6	-68.329782
1.541605E-6	-70.444566
1.54165E-6	-74.762535
1.541695E-6	-79.661743
1.54174E-6	-82.432118
1.541785E-6	-83.202996
1.54183E-6	-82.143855
1.541875E-6	-78.677403
1.54192E-6	-70.350807
1.541965E-6	-53.46884
1.54201E-6	-44.974363
1.542055E-6	-42.096445
1.5421E-6	-41.188437
1.542145E-6	-40.992506
1.54219E-6	-40.937727
1.542235E-6	-40.884695
1.54228E-6	-40.986507
1.542325E-6	-42.198268
1.54237E-6	-45.841923
1.542415E-6	-53.273481
1.54246E-6	-62.165967
1.542505E-6	-70.41962
1.54255E-6	-76.918626
1.542595E-6	-79.943906
1.54264E-6	-81.654521
1.542685E-6	-83.776823
1.54273E-6	-78.748442
1.542775E-6	-72.084497
1.54282E-6	-68.810742
1.542865E-6	-67.307206
1.54291E-6	-67.10411
1.542955E-6	-67.007107
1.543E-6	-66.996219
1.543045E-6	-66.987529
1.54309E-6	-66.987529
1.543135E-6	-67.562181
1.54318E-6	-69.488475
1.543225E-6	-72.943073
1.54327E-6	-78.341624
1.543315E-6	-81.473371
1.54336E-6	-82.870979
1.543405E-6	-82.846653
1.54345E-6	-80.345631
1.543495E-6	-73.367704
1.54354E-6	-58.16161
1.543585E-6	-47.493361
1.54363E-6	-42.675258
1.543675E-6	-41.29479
1.54372E-6	-41.002889
1.543765E-6	-40.971272
1.54381E-6	-40.955008
1.543855E-6	-40.942041
1.5439E-6	-41.749636
1.543945E-6	-44.628108
1.54399E-6	-50.815503
1.544035E-6	-61.775704
1.54408E-6	-69.28118
1.544125E-6	-75.598784
1.54417E-6	-79.812995
1.544215E-6	-81.520574
1.54426E-6	-83.418932
1.544305E-6	-80.557148
1.54435E-6	-73.186683
1.544395E-6	-69.259153
1.54444E-6	-67.300203
1.544485E-6	-66.771607
1.54453E-6	-66.773673
1.544575E-6	-66.66956
1.54462E-6	-66.790233
1.544665E-6	-66.718243
1.54471E-6	-66.9897
1.544755E-6	-68.365404
1.5448E-6	-71.260403
1.544845E-6	-76.50334
1.54489E-6	-81.756138
1.544935E-6	-84.375882
1.54498E-6	-83.284569
1.545025E-6	-81.858856
1.54507E-6	-75.394028
1.545115E-6	-62.942218
1.54516E-6	-49.854795
1.545205E-6	-43.562513
1.54525E-6	-41.45937
1.545295E-6	-40.970186
1.54534E-6	-40.877248
1.545385E-6	-40.852339
1.54543E-6	-40.853396
1.545475E-6	-41.225135
1.54552E-6	-43.069769
1.545565E-6	-47.891466
1.54561E-6	-56.863437
1.545655E-6	-65.526869
1.5457E-6	-72.891214
1.545745E-6	-78.735439
1.54579E-6	-81.763302
1.545835E-6	-82.800062
1.54588E-6	-82.974833
1.545925E-6	-76.004993
1.54597E-6	-70.421534
1.546015E-6	-67.56962
1.54606E-6	-66.716204
1.546105E-6	-66.609463
1.54615E-6	-66.647427
1.546195E-6	-66.546263
1.54624E-6	-66.5738
1.546285E-6	-66.703988
1.54633E-6	-67.503126
1.546375E-6	-69.597934
1.54642E-6	-74.120647
1.546465E-6	-78.867253
1.54651E-6	-83.022477
1.546555E-6	-82.826624
1.5466E-6	-83.039058
1.546645E-6	-79.562449
1.54669E-6	-70.849169
1.546735E-6	-54.497716
1.54678E-6	-45.343198
1.546825E-6	-42.139588
1.54687E-6	-41.139043
1.546915E-6	-40.93665
1.54696E-6	-40.911398
1.547005E-6	-40.893756
1.54705E-6	-41.027579
1.547095E-6	-42.078886
1.54714E-6	-45.52222
1.547185E-6	-52.581396
1.54723E-6	-61.600822
1.547275E-6	-70.025699
1.54732E-6	-76.880343
1.547365E-6	-80.257186
1.54741E-6	-83.040807
1.547455E-6	-83.693688
1.5475E-6	-79.200955
1.547545E-6	-72.235894
1.54759E-6	-68.548036
1.547635E-6	-66.852903
1.54768E-6	-66.556077
1.547725E-6	-66.518899
1.54777E-6	-66.516951
1.547815E-6	-66.581699
1.54786E-6	-66.597542
1.547905E-6	-66.882461
1.54795E-6	-68.557372
1.547995E-6	-71.593294
1.54804E-6	-77.144427
1.548085E-6	-81.458155
1.54813E-6	-83.37809
1.548175E-6	-82.776952
1.54822E-6	-81.404414
1.548265E-6	-74.982563
1.54831E-6	-61.212485
1.548355E-6	-48.658229
1.5484E-6	-43.147062
1.548445E-6	-41.327093
1.54849E-6	-40.928575
1.548535E-6	-40.877248
1.54858E-6	-40.862921
1.548625E-6	-40.885228
1.54867E-6	-41.300646
1.548715E-6	-43.372422
1.54876E-6	-48.495506
1.548805E-6	-58.06319
1.54885E-6	-66.434006
1.548895E-6	-73.533023
1.54894E-6	-79.566377
1.548985E-6	-81.146388
1.54903E-6	-82.982594
1.549075E-6	-83.105136
1.54912E-6	-75.892228
1.549165E-6	-70.400528
1.54921E-6	-67.579558
1.549255E-6	-66.775739
1.5493E-6	-66.689778
1.549345E-6	-66.532559
1.54939E-6	-66.587634
1.549435E-6	-66.593576
1.54948E-6	-66.641411
1.549525E-6	-67.361273
1.54957E-6	-69.637705
1.549615E-6	-73.818473
1.54966E-6	-78.934691
1.549705E-6	-82.529768
1.54975E-6	-83.982659
1.549795E-6	-96.245193
1.54984E-6	-79.574245
1.549885E-6	-71.314731
1.54993E-6	-54.994891
1.549975E-6	-46.138579
1.55002E-6	-42.099261
1.550065E-6	-41.030331
1.55011E-6	-40.866101
1.550155E-6	-40.817599
1.5502E-6	-40.808173
1.550245E-6	-40.892156
1.55029E-6	-41.622222
1.550335E-6	-44.470885
1.55038E-6	-50.677292
1.550425E-6	-61.875546
1.55047E-6	-69.259153
1.550515E-6	-75.601938
1.55056E-6	-80.083753
1.550605E-6	-83.72839
1.55065E-6	-82.635238
1.550695E-6	-80.228711
1.55074E-6	-73.100699
1.550785E-6	-68.975663
1.55083E-6	-66.983191
1.550875E-6	-66.544302
1.55092E-6	-66.464684
1.550965E-6	-66.483969
1.55101E-6	-66.437829
1.551055E-6	-66.489771
1.5511E-6	-66.675615
1.551145E-6	-67.950665
1.55119E-6	-70.612802
1.551235E-6	-75.828606
1.55128E-6	-80.370627
1.551325E-6	-82.276049
1.55137E-6	-83.667336
1.551415E-6	-81.889615
1.55146E-6	-76.546263
1.551505E-6	-65.556429
1.55155E-6	-50.934495
1.551595E-6	-44.089354
1.55164E-6	-41.73666
1.551685E-6	-41.115397
1.55173E-6	-40.984872
1.551775E-6	-41.010007
1.55182E-6	-40.972359
1.551865E-6	-41.162818
1.55191E-6	-42.605068
1.551955E-6	-46.643415
1.552E-6	-54.763836
1.552045E-6	-63.586251
1.55209E-6	-71.417637
1.552135E-6	-77.90485
1.55218E-6	-81.137349
1.552225E-6	-82.51192
1.55227E-6	-82.085199
1.552315E-6	-78.541823
1.55236E-6	-71.317671
1.552405E-6	-68.093882
1.55245E-6	-66.716204
1.552495E-6	-66.428277
1.55254E-6	-66.403542
1.552585E-6	-66.35074
1.55263E-6	-66.411138
1.552675E-6	-66.34512
1.55272E-6	-66.79646
1.552765E-6	-68.623295
1.55281E-6	-71.789452
1.552855E-6	-77.363639
1.5529E-6	-81.450263
1.552945E-6	-83.480439
1.55299E-6	-83.551677
1.553035E-6	-81.082396
1.55308E-6	-74.782084
1.553125E-6	-60.474982
1.55317E-6	-48.365404
1.553215E-6	-42.975695
1.55326E-6	-41.344815
1.553305E-6	-40.945819
1.55335E-6	-40.876185
1.553395E-6	-40.863451
1.55344E-6	-40.867161
1.553485E-6	-41.258082
1.55353E-6	-43.27625
1.553575E-6	-48.273971
1.55362E-6	-57.375489
1.553665E-6	-65.813673
1.55371E-6	-72.943928
1.553755E-6	-78.582368
1.5538E-6	-82.417696
1.553845E-6	-82.974833
1.55389E-6	-81.787486
1.553935E-6	-75.113083
1.55398E-6	-69.93962
1.554025E-6	-67.191941
1.55407E-6	-66.403542
1.554115E-6	-66.214204
1.55416E-6	-66.188849
1.554205E-6	-66.165437
1.55425E-6	-66.185239
1.554295E-6	-66.252517
1.55434E-6	-66.991872
1.554385E-6	-69.172146
1.55443E-6	-73.00249
1.554475E-6	-79.266483
1.55452E-6	-81.253443
1.554565E-6	-83.084765
1.55461E-6	-82.843309
1.554655E-6	-80.203606
1.5547E-6	-72.731913
1.554745E-6	-56.647427
1.55479E-6	-47.018021
1.554835E-6	-42.605068
1.55488E-6	-41.39662
1.554925E-6	-41.106983
1.55497E-6	-41.017686
1.555015E-6	-41.014394
1.55506E-6	-41.020981
1.555105E-6	-41.512568
1.55515E-6	-43.881705
1.555195E-6	-49.24453
1.55524E-6	-59.965395
1.555285E-6	-67.767637
1.55533E-6	-74.212462
1.555375E-6	-79.593977
1.55542E-6	-82.462638
1.555465E-6	-81.524273
1.55551E-6	-81.498441
1.555555E-6	-73.888079
1.5556E-6	-69.193735
1.555645E-6	-66.74895
1.55569E-6	-66.165437
1.555735E-6	-65.972229
1.55578E-6	-65.985995
1.555825E-6	-65.973948
1.55587E-6	-66.013657
1.555915E-6	-66.088884
1.55596E-6	-67.002748
1.556005E-6	-69.427144
1.55605E-6	-73.636124
1.556095E-6	-79.558524
1.55614E-6	-81.915189
1.556185E-6	-83.477537
1.55623E-6	-82.079587
1.556275E-6	-79.370422
1.55632E-6	-70.975619
1.556365E-6	-54.312118
1.55641E-6	-46.136794
1.556455E-6	-42.165967
1.5565E-6	-41.185012
1.556545E-6	-40.973445
1.55659E-6	-40.930188
1.556635E-6	-40.901232
1.55668E-6	-40.99469
1.556725E-6	-41.666616
1.55677E-6	-44.258529
1.556815E-6	-50.253041
1.55686E-6	-61.011652
1.556905E-6	-68.557372
1.55695E-6	-75.431787
1.556995E-6	-79.637705
1.55704E-6	-81.92465
1.557085E-6	-82.798407
1.55713E-6	-81.283103
1.557175E-6	-73.481407
1.55722E-6	-68.961963
1.557265E-6	-66.714166
1.55731E-6	-66.214204
1.557355E-6	-66.051982
1.5574E-6	-66.03452
1.557445E-6	-66.036263
1.55749E-6	-66.050233
1.557535E-6	-66.258017
1.55758E-6	-67.142177
1.557625E-6	-69.519468
1.55767E-6	-74.435769
1.557715E-6	-79.469216
1.55776E-6	-83.032942
1.557805E-6	-81.725015
1.55785E-6	-82.839131
1.557895E-6	-78.955129
1.55794E-6	-70.346101
1.557985E-6	-53.687592
1.55803E-6	-44.944431
1.558075E-6	-41.943632
1.55812E-6	-40.945819
1.558165E-6	-40.749975
1.55821E-6	-40.769633
1.558255E-6	-40.776898
1.5583E-6	-40.843891
1.558345E-6	-41.591414
1.55839E-6	-44.391373
1.558435E-6	-50.4072
1.55848E-6	-61.24071
1.558525E-6	-68.741935
1.55857E-6	-75.389519
1.558615E-6	-79.570309
1.55866E-6	-81.571412
1.558705E-6	-83.016384
1.55875E-6	-81.915189
1.558795E-6	-73.587242
1.55884E-6	-69.017025
1.558885E-6	-66.876111
1.55893E-6	-66.348866
1.558975E-6	-66.261689
1.55902E-6	-66.254349
1.559065E-6	-66.287474
1.55911E-6	-66.339508
1.559155E-6	-66.437829
1.5592E-6	-67.342391
1.559245E-6	-69.714287
1.55929E-6	-74.483061
1.559335E-6	-79.010104
1.55938E-6	-82.865095
1.559425E-6	-82.918341
1.55947E-6	-82.612194
1.559515E-6	-79.072794
1.55956E-6	-70.993052
1.559605E-6	-54.549404
1.55965E-6	-46.117211
1.559695E-6	-42.121146
1.55974E-6	-41.115958
1.559785E-6	-40.962591
1.55983E-6	-40.968557
1.559875E-6	-41.02923
1.55992E-6	-41.127204
1.559965E-6	-41.868195
1.56001E-6	-44.74178
1.560055E-6	-50.984872
1.5601E-6	-61.819061
1.560145E-6	-69.344203
1.56019E-6	-75.556429
1.560235E-6	-79.554602
1.56028E-6	-81.892971
1.560325E-6	-83.027707
1.56037E-6	-82.386737
1.560415E-6	-74.427335
1.56046E-6	-69.755143
1.560505E-6	-67.416022
1.56055E-6	-66.897316
1.560595E-6	-66.825635
1.56064E-6	-66.863437
1.560685E-6	-66.878226
1.56073E-6	-66.857113
1.560775E-6	-66.946486
1.56082E-6	-67.910215
1.560865E-6	-70.166444
1.56091E-6	-74.814861
1.560955E-6	-78.90759
1.561E-6	-82.001083
1.561045E-6	-82.881928
1.56109E-6	-83.27625
1.561135E-6	-79.763361
1.56118E-6	-71.723723
1.561225E-6	-55.410601
1.56127E-6	-46.35449
1.561315E-6	-42.084497
1.56136E-6	-40.993598
1.561405E-6	-40.841782
1.56145E-6	-40.868752
1.561495E-6	-40.916222
1.56154E-6	-41.017686
1.561585E-6	-41.643094
1.56163E-6	-44.233132
1.561675E-6	-50.039702
1.56172E-6	-60.805035
1.561765E-6	-68.50473
1.56181E-6	-75.15131
1.561855E-6	-78.850556
1.5619E-6	-81.71469
1.561945E-6	-83.628106
1.56199E-6	-82.696215
1.562035E-6	-76.088884
1.56208E-6	-71.058502
1.562125E-6	-68.629625
1.56217E-6	-67.687854
1.562215E-6	-67.68021
1.56226E-6	-67.664962
1.562305E-6	-67.657359
1.56235E-6	-67.652297
1.562395E-6	-67.966951
1.56244E-6	-68.498578
1.562485E-6	-70.158779
1.56253E-6	-74.534573
1.562575E-6	-78.90759
1.56262E-6	-82.660007
1.562665E-6	-84.048346
1.56271E-6	-82.774483
1.562755E-6	-81.036392
1.5628E-6	-74.05718
1.562845E-6	-59.062282
1.56289E-6	-47.413627
1.562935E-6	-42.464169
1.56298E-6	-40.995236
1.563025E-6	-40.778457
1.56307E-6	-40.789381
1.563115E-6	-40.860273
1.56316E-6	-40.971815
1.563205E-6	-41.447232
1.56325E-6	-43.542831
1.563295E-6	-48.784402
1.56334E-6	-58.471004
1.563385E-6	-66.794383
1.56343E-6	-73.746875
1.563475E-6	-78.955129
