Wavelength (nm)	Power (dBm)
1.525E-6	-49.665762
1.525045E-6	-49.554602
1.52509E-6	-49.698052
1.525135E-6	-50.266412
1.52518E-6	-50.891089
1.525225E-6	-51.12214
1.52527E-6	-51.09579
1.525315E-6	-51.028129
1.52536E-6	-50.949601
1.525405E-6	-50.86451
1.52545E-6	-50.598323
1.525495E-6	-49.730584
1.52554E-6	-48.579235
1.525585E-6	-47.859513
1.52563E-6	-47.544873
1.525675E-6	-47.342391
1.52572E-6	-47.160207
1.525765E-6	-46.965879
1.52581E-6	-46.825635
1.525855E-6	-46.983191
1.5259E-6	-47.835702
1.525945E-6	-49.069287
1.52599E-6	-49.775716
1.526035E-6	-49.875846
1.52608E-6	-49.842212
1.526125E-6	-49.775716
1.52617E-6	-49.706162
1.526215E-6	-49.473061
1.52626E-6	-48.353498
1.526305E-6	-46.699923
1.52635E-6	-45.463759
1.526395E-6	-45.101821
1.52644E-6	-44.918745
1.526485E-6	-44.776862
1.52653E-6	-44.614263
1.526575E-6	-44.509967
1.52662E-6	-44.710833
1.526665E-6	-45.662302
1.52671E-6	-47.349462
1.526755E-6	-48.59492
1.5268E-6	-48.887375
1.526845E-6	-48.880657
1.52689E-6	-48.817353
1.526935E-6	-48.76475
1.52698E-6	-48.507809
1.527025E-6	-47.137681
1.52707E-6	-44.92684
1.527115E-6	-43.483344
1.52716E-6	-42.931116
1.527205E-6	-42.735173
1.52725E-6	-42.572749
1.527295E-6	-42.476442
1.52734E-6	-42.401811
1.527385E-6	-42.524328
1.52743E-6	-43.379036
1.527475E-6	-45.364056
1.52752E-6	-47.399286
1.527565E-6	-48.130437
1.52761E-6	-48.210231
1.527655E-6	-48.16161
1.5277E-6	-48.153086
1.527745E-6	-48.01893
1.52779E-6	-46.792308
1.527835E-6	-44.19189
1.52788E-6	-42.21704
1.527925E-6	-41.42125
1.52797E-6	-41.191293
1.528015E-6	-41.142431
1.52806E-6	-41.094672
1.528105E-6	-41.023179
1.52815E-6	-41.048538
1.528195E-6	-41.709537
1.52824E-6	-43.557584
1.528285E-6	-46.178028
1.52833E-6	-47.572102
1.528375E-6	-47.817271
1.52842E-6	-47.785858
1.528465E-6	-47.594508
1.52851E-6	-46.599527
1.528555E-6	-40.94852
1.5286E-6	-28.099486
1.528645E-6	-20.771708
1.52869E-6	-17.723704
1.528735E-6	-16.775739
1.52878E-6	-16.544302
1.528825E-6	-16.441655
1.52887E-6	-16.322715
1.528915E-6	-16.456994
1.52896E-6	-17.964232
1.529005E-6	-22.111955
1.52905E-6	-30.895891
1.529095E-6	-40.411495
1.52914E-6	-45.598784
1.529185E-6	-47.176045
1.52923E-6	-47.464197
1.529275E-6	-47.095202
1.52932E-6	-44.758636
1.529365E-6	-32.00246
1.52941E-6	-22.545348
1.529455E-6	-18.585502
1.5295E-6	-17.061956
1.529545E-6	-16.710091
1.52959E-6	-16.597542
1.529635E-6	-16.550186
1.52968E-6	-16.560009
1.529725E-6	-17.449688
1.52977E-6	-20.504636
1.529815E-6	-27.609509
1.52986E-6	-38.380334
1.529905E-6	-44.55932
1.52995E-6	-46.933606
1.529995E-6	-47.447275
1.53004E-6	-47.325936
1.530085E-6	-46.094181
1.53013E-6	-36.972363
1.530175E-6	-24.869156
1.53022E-6	-19.742846
1.530265E-6	-17.62205
1.53031E-6	-17.061956
1.530355E-6	-16.937895
1.5304E-6	-16.848697
1.530445E-6	-16.817279
1.53049E-6	-17.217038
1.530535E-6	-19.28118
1.53058E-6	-24.420119
1.530625E-6	-34.444219
1.53067E-6	-42.685724
1.530715E-6	-46.441655
1.53076E-6	-47.382615
1.530805E-6	-47.459355
1.53085E-6	-46.773673
1.530895E-6	-42.412395
1.53094E-6	-28.362425
1.530985E-6	-21.188437
1.53103E-6	-18.291518
1.531075E-6	-17.418418
1.53112E-6	-17.2262
1.531165E-6	-17.14893
1.53121E-6	-17.128704
1.531255E-6	-17.300203
1.5313E-6	-18.674202
1.531345E-6	-22.602695
1.53139E-6	-30.72373
1.531435E-6	-40.58936
1.53148E-6	-45.744658
1.531525E-6	-47.249191
1.53157E-6	-47.535014
1.531615E-6	-47.2262
1.53166E-6	-45.22734
1.531705E-6	-32.786841
1.53175E-6	-23.075938
1.531795E-6	-19.055289
1.53184E-6	-17.530093
1.531885E-6	-17.187393
1.53193E-6	-17.146678
1.531975E-6	-17.113037
1.53202E-6	-17.196493
1.532065E-6	-17.896815
1.53211E-6	-20.535969
1.532155E-6	-26.794383
1.5322E-6	-37.219327
1.532245E-6	-44.134127
1.53229E-6	-46.855008
1.532335E-6	-47.535014
1.53238E-6	-47.47147
1.532425E-6	-46.428277
1.53247E-6	-39.385475
1.532515E-6	-25.649524
1.53256E-6	-20.090842
1.532605E-6	-17.835702
1.53265E-6	-17.281584
1.532695E-6	-17.205612
1.53274E-6	-17.21475
1.532785E-6	-17.286231
1.53283E-6	-17.649768
1.532875E-6	-19.527251
1.53292E-6	-24.166878
1.532965E-6	-33.379981
1.53301E-6	-42.282656
1.533055E-6	-46.422557
1.5331E-6	-47.539941
1.533145E-6	-47.675121
1.53319E-6	-47.223908
1.533235E-6	-44.309774
1.53328E-6	-30.969643
1.533325E-6	-22.246809
1.53337E-6	-18.629625
1.533415E-6	-17.411234
1.53346E-6	-17.219327
1.533505E-6	-17.242281
1.53355E-6	-17.311881
1.533595E-6	-17.478754
1.53364E-6	-18.4649
1.533685E-6	-21.726954
1.53373E-6	-29.041335
1.533775E-6	-39.503944
1.53382E-6	-45.295895
1.533865E-6	-47.387371
1.53391E-6	-47.827793
1.533955E-6	-47.672579
1.534E-6	-46.302277
1.534045E-6	-37.166988
1.53409E-6	-24.792545
1.534135E-6	-19.629721
1.53418E-6	-17.597004
1.534225E-6	-17.166988
1.53427E-6	-17.180581
1.534315E-6	-17.244583
1.53436E-6	-17.370745
1.534405E-6	-17.878124
1.53445E-6	-20.000869
1.534495E-6	-25.05289
1.53454E-6	-34.710833
1.534585E-6	-43.127387
1.53463E-6	-46.937895
1.534675E-6	-47.907532
1.53472E-6	-47.986029
1.534765E-6	-47.347104
1.53481E-6	-43.629107
1.534855E-6	-29.211808
1.5349E-6	-21.394224
1.534945E-6	-18.130437
1.53499E-6	-17.155693
1.535035E-6	-17.077439
1.53508E-6	-17.160207
1.535125E-6	-17.263044
1.53517E-6	-17.512913
1.535215E-6	-18.814046
1.53526E-6	-22.448114
1.535305E-6	-30.076674
1.53535E-6	-40.224136
1.535395E-6	-46.046736
1.53544E-6	-47.85421
1.535485E-6	-48.210231
1.53553E-6	-47.961515
1.535575E-6	-46.313413
1.53562E-6	-36.067759
1.535665E-6	-24.397346
1.53571E-6	-19.400581
1.535755E-6	-17.444863
1.5358E-6	-17.095202
1.535845E-6	-17.108572
1.53589E-6	-17.198771
1.535935E-6	-17.290884
1.53598E-6	-17.843624
1.536025E-6	-20.125125
1.53607E-6	-25.780672
1.536115E-6	-35.931193
1.53616E-6	-43.91795
1.536205E-6	-47.380238
1.53625E-6	-48.247782
1.536295E-6	-48.309136
1.53634E-6	-47.522722
1.536385E-6	-43.270713
1.53643E-6	-28.944898
1.536475E-6	-21.109786
1.53652E-6	-17.947956
1.536565E-6	-16.996219
1.53661E-6	-16.893067
1.536655E-6	-16.950788
1.5367E-6	-17.015836
1.536745E-6	-17.191941
1.53679E-6	-18.480176
1.536835E-6	-22.097148
1.53688E-6	-30.091286
1.536925E-6	-40.255804
1.53697E-6	-46.140364
1.537015E-6	-47.999707
1.53706E-6	-48.437538
1.537105E-6	-48.17015
1.53715E-6	-46.411138
1.537195E-6	-36.196078
1.53724E-6	-24.125135
1.537285E-6	-19.172146
1.53733E-6	-17.207895
1.537375E-6	-16.817279
1.53742E-6	-16.781945
1.537465E-6	-16.792308
1.53751E-6	-16.852903
1.537555E-6	-17.344747
1.5376E-6	-19.586073
1.537645E-6	-25.101821
1.53769E-6	-35.355105
1.537735E-6	-43.448616
1.53778E-6	-47.256112
1.537825E-6	-48.320922
1.53787E-6	-48.437538
1.537915E-6	-47.74174
1.53796E-6	-44.118404
1.538005E-6	-29.93962
1.53805E-6	-21.406215
1.538095E-6	-17.9588
1.53814E-6	-16.871882
1.538185E-6	-16.693833
1.53823E-6	-16.647427
1.538275E-6	-16.653452
1.53832E-6	-16.779876
1.538365E-6	-17.891466
1.53841E-6	-21.344223
1.538455E-6	-29.20457
1.5385E-6	-39.726504
1.538545E-6	-45.561115
1.53859E-6	-47.89414
1.538635E-6	-48.428456
1.53868E-6	-48.239087
1.538725E-6	-46.763355
1.53877E-6	-37.318903
1.538815E-6	-24.932245
1.53886E-6	-19.453869
1.538905E-6	-17.325936
1.53895E-6	-16.827727
1.538995E-6	-16.695862
1.53904E-6	-16.655462
1.539085E-6	-16.663512
1.53913E-6	-17.050931
1.539175E-6	-19.062282
1.53922E-6	-24.198737
1.539265E-6	-34.036229
1.53931E-6	-42.591638
1.539355E-6	-46.987529
1.5394E-6	-48.187282
1.539445E-6	-48.365404
1.53949E-6	-47.731424
1.539535E-6	-44.457532
1.53958E-6	-30.465303
1.539625E-6	-21.739252
1.53967E-6	-18.16161
1.539715E-6	-16.916491
1.53976E-6	-16.687752
1.539805E-6	-16.615435
1.53985E-6	-16.567884
1.539895E-6	-16.651443
1.53994E-6	-17.532553
1.539985E-6	-20.687965
1.54003E-6	-28.158766
1.540075E-6	-38.823973
1.54012E-6	-45.066814
1.540165E-6	-47.637147
1.54021E-6	-48.244882
1.540255E-6	-48.141746
1.5403E-6	-46.968039
1.540345E-6	-39.669786
1.54039E-6	-25.865326
1.540435E-6	-19.92679
1.54048E-6	-17.461776
1.540525E-6	-16.790233
1.54057E-6	-16.631402
1.540615E-6	-16.569855
1.54066E-6	-16.571827
1.540705E-6	-16.836102
1.54075E-6	-18.53252
1.540795E-6	-23.123819
1.54084E-6	-32.245352
1.540885E-6	-41.620961
1.54093E-6	-46.458916
1.540975E-6	-47.92635
1.54102E-6	-48.158766
1.541065E-6	-47.796304
1.54111E-6	-45.594057
1.541155E-6	-33.165927
1.5412E-6	-23.113133
1.541245E-6	-18.810742
1.54129E-6	-17.191941
1.541335E-6	-16.821455
1.54138E-6	-16.718243
1.541425E-6	-16.687752
1.54147E-6	-16.710091
1.541515E-6	-17.384992
1.54156E-6	-20.089956
1.541605E-6	-26.378947
1.54165E-6	-36.92718
1.541695E-6	-44.091582
1.54174E-6	-47.233085
1.541785E-6	-47.988761
1.54183E-6	-47.977842
1.541875E-6	-47.130946
1.54192E-6	-42.309921
1.541965E-6	-27.557229
1.54201E-6	-20.625323
1.542055E-6	-17.726276
1.5421E-6	-16.880343
1.542145E-6	-16.699923
1.54219E-6	-16.645421
1.542235E-6	-16.611453
1.54228E-6	-16.720284
1.542325E-6	-17.956087
1.54237E-6	-21.614657
1.542415E-6	-29.637705
1.54246E-6	-39.500071
1.542505E-6	-45.508303
1.54255E-6	-47.517814
1.542595E-6	-47.92635
1.54264E-6	-47.731424
1.542685E-6	-46.22876
1.54273E-6	-36.375175
1.542775E-6	-24.481842
1.54282E-6	-19.381707
1.542865E-6	-17.380238
1.54291E-6	-16.882461
1.542955E-6	-16.800616
1.543E-6	-16.779876
1.543045E-6	-16.73869
1.54309E-6	-17.050931
1.543135E-6	-18.961963
1.54318E-6	-23.82266
1.543225E-6	-33.552661
1.54327E-6	-42.253371
1.543315E-6	-46.478175
1.54336E-6	-47.6675
1.543405E-6	-47.838341
1.54345E-6	-47.33298
1.543495E-6	-44.522253
1.54354E-6	-31.155445
1.543585E-6	-22.202592
1.54363E-6	-18.443604
1.543675E-6	-17.10411
1.54372E-6	-16.838199
1.543765E-6	-16.792308
1.54381E-6	-16.751005
1.543855E-6	-16.798537
1.5439E-6	-17.530093
1.543945E-6	-20.265027
1.54399E-6	-26.808939
1.544035E-6	-37.368375
1.54408E-6	-44.151037
1.544125E-6	-47.059749
1.54417E-6	-47.734001
1.544215E-6	-47.723704
1.54426E-6	-46.842395
1.544305E-6	-41.640559
1.54435E-6	-27.349462
1.544395E-6	-20.59932
1.54444E-6	-17.856861
1.544485E-6	-17.086311
1.54453E-6	-16.948637
1.544575E-6	-16.918626
1.54462E-6	-16.88458
1.544665E-6	-17.022395
1.54471E-6	-18.224635
1.544755E-6	-21.988708
1.5448E-6	-29.888526
1.544845E-6	-39.871628
1.54489E-6	-45.594057
1.544935E-6	-47.375489
1.54498E-6	-47.754669
1.545025E-6	-47.547342
1.54507E-6	-46.031036
1.545115E-6	-35.792194
1.54516E-6	-24.236586
1.545205E-6	-19.351678
1.54525E-6	-17.437635
1.545295E-6	-16.998395
1.54534E-6	-16.91009
1.545385E-6	-16.899443
1.54543E-6	-16.91009
1.545475E-6	-17.272304
1.54552E-6	-19.262816
1.545565E-6	-24.143137
1.54561E-6	-33.731466
1.545655E-6	-42.413909
1.5457E-6	-46.430186
1.545745E-6	-47.557229
1.54579E-6	-47.728849
1.545835E-6	-47.309543
1.54588E-6	-44.870489
1.545925E-6	-32.143855
1.54597E-6	-22.454988
1.546015E-6	-18.489367
1.54606E-6	-17.135435
1.546105E-6	-16.85922
1.54615E-6	-16.821455
1.546195E-6	-16.79646
1.54624E-6	-16.819367
1.546285E-6	-17.440043
1.54633E-6	-19.969705
1.546375E-6	-26.131445
1.54642E-6	-36.561977
1.546465E-6	-43.880644
1.54651E-6	-46.876111
1.546555E-6	-47.644716
1.5466E-6	-47.68021
1.546645E-6	-46.965879
1.54669E-6	-42.368716
1.546735E-6	-28.53872
1.54678E-6	-21.041356
1.546825E-6	-18.035475
1.54687E-6	-17.095202
1.546915E-6	-16.920763
1.54696E-6	-16.878226
1.547005E-6	-16.871882
1.54705E-6	-17.011469
1.547095E-6	-18.068754
1.54714E-6	-21.402614
1.547185E-6	-28.667805
1.54723E-6	-39.237237
1.547275E-6	-45.057062
1.54732E-6	-47.233085
1.547365E-6	-47.692957
1.54741E-6	-47.587026
1.547455E-6	-46.437829
1.5475E-6	-39.590023
1.547545E-6	-25.734887
1.54759E-6	-19.965395
1.547635E-6	-17.602002
1.54768E-6	-17.007107
1.547725E-6	-16.895191
1.54777E-6	-16.880343
1.547815E-6	-16.897316
1.54786E-6	-17.081873
1.547905E-6	-18.523237
1.54795E-6	-22.605859
1.547995E-6	-31.156012
1.54804E-6	-40.649464
1.548085E-6	-45.800443
1.54813E-6	-47.408842
1.548175E-6	-47.71343
1.54822E-6	-47.447275
1.548265E-6	-45.757719
1.54831E-6	-34.903943
1.548355E-6	-23.91474
1.5484E-6	-19.237237
1.548445E-6	-17.380238
1.54849E-6	-16.952941
1.548535E-6	-16.888822
1.54858E-6	-16.865546
1.548625E-6	-16.8867
1.54867E-6	-17.265357
1.548715E-6	-19.28118
1.54876E-6	-24.396151
1.548805E-6	-34.002261
1.54885E-6	-42.432878
1.548895E-6	-46.458916
1.54894E-6	-47.542406
1.548985E-6	-47.687854
1.54903E-6	-47.249191
1.549075E-6	-44.730149
1.54912E-6	-32.258481
1.549165E-6	-22.61061
1.54921E-6	-18.677403
1.549255E-6	-17.20105
1.5493E-6	-16.922901
1.549345E-6	-16.895191
1.54939E-6	-16.878226
1.549435E-6	-16.922901
1.54948E-6	-17.527635
1.549525E-6	-20.053749
1.54957E-6	-25.953373
1.549615E-6	-36.099485
1.54966E-6	-43.49984
1.549705E-6	-46.786087
1.54975E-6	-47.582046
1.549795E-6	-47.629592
1.54984E-6	-46.985359
1.549885E-6	-43.367704
1.54993E-6	-29.480761
1.549975E-6	-21.56269
1.55002E-6	-18.236193
1.550065E-6	-17.194216
1.55011E-6	-16.996219
1.550155E-6	-16.970201
1.5502E-6	-16.955095
1.550245E-6	-17.009287
1.55029E-6	-17.71343
1.550335E-6	-20.470623
1.55038E-6	-27.173779
1.550425E-6	-37.867479
1.55047E-6	-44.312118
1.550515E-6	-46.96372
1.55056E-6	-47.56962
1.550605E-6	-47.537477
1.55065E-6	-46.651443
1.550695E-6	-41.294205
1.55074E-6	-26.976691
1.550785E-6	-20.570499
1.55083E-6	-17.775437
1.550875E-6	-17.011469
1.55092E-6	-16.888822
1.550965E-6	-16.836102
1.55101E-6	-16.802695
1.551055E-6	-16.916491
1.5511E-6	-17.999707
1.551145E-6	-21.370938
1.55119E-6	-29.154237
1.551235E-6	-39.531148
1.55128E-6	-45.036239
1.551325E-6	-47.113037
1.55137E-6	-47.564659
1.551415E-6	-47.456937
1.55146E-6	-46.38839
1.551505E-6	-39.453869
1.55155E-6	-26.097716
1.551595E-6	-20.190881
1.55164E-6	-17.75726
1.551685E-6	-17.121983
1.55173E-6	-16.996219
1.551775E-6	-16.961562
1.55182E-6	-16.96372
1.551865E-6	-17.144427
1.55191E-6	-18.501653
1.551955E-6	-22.39276
1.552E-6	-30.504636
1.552045E-6	-40.184079
1.55209E-6	-45.589336
1.552135E-6	-47.203331
1.55218E-6	-47.525177
1.552225E-6	-47.32359
1.55227E-6	-45.888856
1.552315E-6	-36.095948
1.55236E-6	-24.516106
1.552405E-6	-19.500071
1.55245E-6	-17.50557
1.552495E-6	-17.059749
1.55254E-6	-16.985359
1.552585E-6	-16.944337
1.55263E-6	-16.931463
1.552675E-6	-17.207895
1.55272E-6	-18.931295
1.552765E-6	-23.54676
1.55281E-6	-32.558635
1.552855E-6	-41.615287
1.5529E-6	-46.048484
1.552945E-6	-47.269987
1.55299E-6	-47.481185
1.553035E-6	-47.180581
1.55308E-6	-45.30178
1.553125E-6	-34.251588
1.55317E-6	-23.379036
1.553215E-6	-18.968807
1.55326E-6	-17.279262
1.553305E-6	-16.914356
1.55335E-6	-16.840297
1.553395E-6	-16.804776
1.55344E-6	-16.813107
1.553485E-6	-17.203331
1.55353E-6	-19.208188
1.553575E-6	-24.074902
1.55362E-6	-33.559555
1.553665E-6	-42.086603
1.55371E-6	-46.120765
1.553755E-6	-47.258422
1.5538E-6	-47.428016
1.553845E-6	-47.061956
1.55389E-6	-44.814861
1.553935E-6	-32.416938
1.55398E-6	-22.738435
1.554025E-6	-18.76475
1.55407E-6	-17.363639
1.554115E-6	-17.022395
1.55416E-6	-16.933606
1.554205E-6	-16.918626
1.55425E-6	-16.916491
1.554295E-6	-17.325936
1.55434E-6	-19.492337
1.554385E-6	-24.8096
1.55443E-6	-34.633153
1.554475E-6	-42.768728
1.55452E-6	-46.324577
1.554565E-6	-47.274622
1.55461E-6	-47.377863
1.554655E-6	-46.893067
1.5547E-6	-44.087127
1.554745E-6	-30.925886
1.55479E-6	-22.108425
1.554835E-6	-18.554258
1.55488E-6	-17.32359
1.554925E-6	-17.037737
1.55497E-6	-16.972363
1.555015E-6	-16.950788
1.55506E-6	-16.970201
1.555105E-6	-17.500682
1.55515E-6	-19.833845
1.555195E-6	-25.609833
1.55524E-6	-35.785606
1.555285E-6	-43.204813
1.55533E-6	-46.428277
1.555375E-6	-47.253804
1.55542E-6	-47.311881
1.555465E-6	-46.732546
1.55551E-6	-43.248635
1.555555E-6	-29.542859
1.5556E-6	-21.513799
1.555645E-6	-18.271053
1.55569E-6	-17.2262
1.555735E-6	-16.985359
1.55578E-6	-16.952941
1.555825E-6	-16.950788
1.55587E-6	-16.983191
1.555915E-6	-17.527635
1.55596E-6	-20.010436
1.556005E-6	-26.013657
1.55605E-6	-36.50334
1.556095E-6	-43.601153
1.55614E-6	-46.522798
1.556185E-6	-47.251497
1.55623E-6	-47.281584
1.556275E-6	-46.661499
1.55632E-6	-43.065369
1.556365E-6	-29.325572
1.55641E-6	-21.44602
1.556455E-6	-18.110715
1.5565E-6	-17.033348
1.556545E-6	-16.815193
1.55659E-6	-16.794383
1.556635E-6	-16.777807
1.55668E-6	-16.825635
1.556725E-6	-17.532553
1.55677E-6	-20.213631
1.556815E-6	-26.679657
1.55686E-6	-37.020208
1.556905E-6	-43.761307
1.55695E-6	-46.589614
1.556995E-6	-47.233085
1.55704E-6	-47.258422
1.557085E-6	-46.635403
1.55713E-6	-42.999023
1.557175E-6	-29.186527
1.55722E-6	-21.267375
1.557265E-6	-18.10229
1.55731E-6	-17.028963
1.557355E-6	-16.821455
1.5574E-6	-16.784016
1.557445E-6	-16.781945
1.55749E-6	-16.848697
1.557535E-6	-17.587026
1.55758E-6	-20.356461
1.557625E-6	-27.033348
1.55767E-6	-37.401673
1.557715E-6	-43.932963
1.55776E-6	-46.607474
1.557805E-6	-47.249191
1.55785E-6	-47.267672
1.557895E-6	-46.621416
1.55794E-6	-42.635238
1.557985E-6	-28.934691
1.55803E-6	-21.305923
1.558075E-6	-18.032713
1.55812E-6	-16.93575
1.558165E-6	-16.73869
1.55821E-6	-16.720284
1.558255E-6	-16.73869
1.5583E-6	-16.815193
1.558345E-6	-17.607005
1.55839E-6	-20.487596
1.558435E-6	-27.185121
1.55848E-6	-37.599502
1.558525E-6	-44.069356
1.55857E-6	-46.706021
1.558615E-6	-47.318903
1.55866E-6	-47.32359
1.558705E-6	-46.687752
1.55875E-6	-42.780246
1.558795E-6	-29.013563
1.55884E-6	-21.338309
1.558885E-6	-18.113527
1.55893E-6	-17.097427
1.558975E-6	-16.92504
1.55902E-6	-16.92718
1.559065E-6	-16.933606
1.55911E-6	-17.020208
1.559155E-6	-17.78325
1.5592E-6	-20.468204
1.559245E-6	-27.024583
1.55929E-6	-37.488487
1.559335E-6	-44.092696
1.55938E-6	-46.798537
1.559425E-6	-47.411234
1.55947E-6	-47.435228
1.559515E-6	-46.736641
1.55956E-6	-42.63046
1.559605E-6	-28.623295
1.55965E-6	-21.093555
1.559695E-6	-18.06041
1.55974E-6	-17.121983
1.559785E-6	-16.965879
1.55983E-6	-16.983191
1.559875E-6	-17.035542
1.55992E-6	-17.119745
1.559965E-6	-17.87546
1.56001E-6	-20.695094
1.560055E-6	-27.269987
1.5601E-6	-37.657359
1.560145E-6	-44.238891
1.56019E-6	-46.90157
1.560235E-6	-47.559704
1.56028E-6	-47.592012
1.560325E-6	-46.976691
1.56037E-6	-43.284569
1.560415E-6	-29.484616
1.56046E-6	-21.344223
1.560505E-6	-18.024438
1.56055E-6	-16.974526
1.560595E-6	-16.825635
1.56064E-6	-16.836102
1.560685E-6	-16.867657
1.56073E-6	-16.983191
1.560775E-6	-17.775437
1.56082E-6	-20.581905
1.560865E-6	-27.113037
1.56091E-6	-37.698066
1.560955E-6	-44.307432
1.561E-6	-47.020208
1.561045E-6	-47.71343
1.56109E-6	-47.765041
1.561135E-6	-47.119745
1.56118E-6	-43.536943
1.561225E-6	-29.550685
1.56127E-6	-21.307683
1.561315E-6	-17.966951
1.56136E-6	-16.940041
1.561405E-6	-16.781945
1.56145E-6	-16.808939
1.561495E-6	-16.85922
1.56154E-6	-16.96372
1.561585E-6	-17.637147
1.56163E-6	-20.242925
1.561675E-6	-26.581699
1.56172E-6	-36.744843
1.561765E-6	-44.021952
1.56181E-6	-47.077439
1.561855E-6	-47.89414
1.5619E-6	-47.966951
1.561945E-6	-47.469044
1.56199E-6	-44.568014
1.562035E-6	-31.239554
1.56208E-6	-21.980478
1.562125E-6	-18.253588
1.56217E-6	-16.968039
1.562215E-6	-16.761294
1.56226E-6	-16.792308
1.562305E-6	-16.850799
1.56235E-6	-16.952941
1.562395E-6	-17.47147
1.56244E-6	-19.665762
1.562485E-6	-25.086383
1.56253E-6	-34.886515
1.562575E-6	-43.071531
1.56262E-6	-46.96372
1.562665E-6	-48.054857
1.56271E-6	-48.193008
1.562755E-6	-47.762445
1.5628E-6	-45.269512
1.562845E-6	-32.649603
1.56289E-6	-22.543788
1.562935E-6	-18.383326
1.56298E-6	-16.90157
1.563025E-6	-16.643415
1.56307E-6	-16.66956
1.563115E-6	-16.736641
1.56316E-6	-16.850799
1.563205E-6	-17.297871
1.56325E-6	-19.423339
1.563295E-6	-24.46724
1.56334E-6	-34.521023
1.563385E-6	-42.701066
1.56343E-6	-46.944337
1.563475E-6	-48.241984
