Wavelength (nm)	Power (dBm)
1.525E-6	-62.452695
1.525045E-6	-62.462638
1.52509E-6	-63.075938
1.525135E-6	-65.149888
1.52518E-6	-69.037854
1.525225E-6	-72.205478
1.52527E-6	-73.840499
1.525315E-6	-73.77061
1.52536E-6	-73.977229
1.525405E-6	-73.65422
1.52545E-6	-71.980478
1.525495E-6	-66.659486
1.52554E-6	-63.270713
1.525585E-6	-61.723723
1.52563E-6	-61.251704
1.525675E-6	-61.075158
1.52572E-6	-60.927499
1.525765E-6	-60.744301
1.52581E-6	-60.640395
1.525855E-6	-61.03584
1.5259E-6	-62.785191
1.525945E-6	-66.482037
1.52599E-6	-70.623818
1.526035E-6	-73.174939
1.52608E-6	-73.840499
1.526125E-6	-73.789276
1.52617E-6	-73.616106
1.526215E-6	-72.182446
1.52626E-6	-66.499459
1.526305E-6	-62.473371
1.52635E-6	-60.487596
1.526395E-6	-59.863203
1.52644E-6	-59.698052
1.526485E-6	-59.578184
1.52653E-6	-59.50782
1.526575E-6	-59.450041
1.52662E-6	-59.677843
1.526665E-6	-60.973445
1.52671E-6	-64.155557
1.526755E-6	-69.062282
1.5268E-6	-72.433639
1.526845E-6	-73.470771
1.52689E-6	-73.571399
1.526935E-6	-73.477537
1.52698E-6	-72.709162
1.527025E-6	-66.983191
1.52707E-6	-62.111249
1.527115E-6	-59.590023
1.52716E-6	-58.674202
1.527205E-6	-58.452718
1.52725E-6	-58.362425
1.527295E-6	-58.297383
1.52734E-6	-58.256494
1.527385E-6	-58.368386
1.52743E-6	-59.329291
1.527475E-6	-62.005216
1.52752E-6	-66.763355
1.527565E-6	-71.117082
1.52761E-6	-73.329208
1.527655E-6	-73.383766
1.5277E-6	-73.446694
1.527745E-6	-72.986047
1.52779E-6	-68.588639
1.527835E-6	-62.356744
1.52788E-6	-59.076303
1.527925E-6	-57.791078
1.52797E-6	-57.483618
1.528015E-6	-57.396901
1.52806E-6	-57.340036
1.528105E-6	-57.293212
1.52815E-6	-57.349462
1.528195E-6	-58.021683
1.52824E-6	-60.022642
1.528285E-6	-64.404524
1.52833E-6	-69.796387
1.528375E-6	-72.281921
1.52842E-6	-72.643213
1.528465E-6	-71.88492
1.52851E-6	-68.607508
1.528555E-6	-59.718356
1.5286E-6	-43.201181
1.528645E-6	-36.20332
1.52869E-6	-33.309622
1.528735E-6	-32.303273
1.52878E-6	-32.043285
1.528825E-6	-31.920593
1.52887E-6	-31.83825
1.528915E-6	-31.936843
1.52896E-6	-33.360165
1.529005E-6	-37.380238
1.52905E-6	-45.639965
1.529095E-6	-57.18285
1.52914E-6	-63.806979
1.529185E-6	-69.115095
1.52923E-6	-70.837567
1.529275E-6	-69.649707
1.52932E-6	-63.602148
1.529365E-6	-48.810742
1.52941E-6	-37.809397
1.529455E-6	-34.079343
1.5295E-6	-32.535994
1.529545E-6	-32.143143
1.52959E-6	-32.007973
1.529635E-6	-31.921945
1.52968E-6	-31.903056
1.529725E-6	-32.756422
1.52977E-6	-35.715412
1.529815E-6	-42.072582
1.52986E-6	-53.033815
1.529905E-6	-62.718086
1.52995E-6	-67.767637
1.529995E-6	-70.454681
1.53004E-6	-70.317039
1.530085E-6	-65.877075
1.53013E-6	-53.580304
1.530175E-6	-39.665762
1.53022E-6	-34.907975
1.530265E-6	-32.677671
1.53031E-6	-32.070483
1.530355E-6	-31.919917
1.5304E-6	-31.85819
1.530445E-6	-31.793389
1.53049E-6	-32.136746
1.530535E-6	-34.13863
1.53058E-6	-39.136402
1.530625E-6	-48.507809
1.53067E-6	-59.593977
1.530715E-6	-65.606673
1.53076E-6	-69.586073
1.530805E-6	-70.601315
1.53085E-6	-68.138916
1.530895E-6	-59.550685
1.53094E-6	-42.66883
1.530985E-6	-35.939711
1.53103E-6	-33.166827
1.531075E-6	-32.223557
1.53112E-6	-31.995579
1.531165E-6	-31.946351
1.53121E-6	-31.921945
1.531255E-6	-32.062794
1.5313E-6	-33.362049
1.531345E-6	-37.151183
1.53139E-6	-44.859838
1.531435E-6	-56.831912
1.53148E-6	-63.470771
1.531525E-6	-68.833923
1.53157E-6	-70.682879
1.531615E-6	-69.476909
1.53166E-6	-63.627105
1.531705E-6	-48.78112
1.53175E-6	-37.612014
1.531795E-6	-33.806979
1.53184E-6	-32.252641
1.531885E-6	-31.903056
1.53193E-6	-31.842895
1.531975E-6	-31.817741
1.53202E-6	-31.876215
1.532065E-6	-32.556288
1.53211E-6	-35.139948
1.532155E-6	-40.609802
1.5322E-6	-51.393027
1.532245E-6	-61.544059
1.53229E-6	-66.779876
1.532335E-6	-69.931063
1.53238E-6	-70.34187
1.532425E-6	-66.237881
1.53247E-6	-54.964817
1.532515E-6	-40.072698
1.53256E-6	-34.791236
1.532605E-6	-32.551596
1.53265E-6	-31.944312
1.532695E-6	-31.86953
1.53274E-6	-31.878892
1.532785E-6	-31.915189
1.53283E-6	-32.29811
1.532875E-6	-34.059391
1.53292E-6	-38.572978
1.532965E-6	-47.413627
1.53301E-6	-58.814046
1.533055E-6	-64.895891
1.5331E-6	-69.657727
1.533145E-6	-70.790423
1.53319E-6	-68.975663
1.533235E-6	-62.160964
1.53328E-6	-46.7305
1.533325E-6	-36.798537
1.53337E-6	-33.411304
1.533415E-6	-32.107719
1.53346E-6	-31.891628
1.533505E-6	-31.901038
1.53355E-6	-31.985277
1.533595E-6	-32.146702
1.53364E-6	-33.098039
1.533685E-6	-36.247023
1.53373E-6	-42.722961
1.533775E-6	-54.792545
1.53382E-6	-61.989395
1.533865E-6	-67.988761
1.53391E-6	-70.552213
1.533955E-6	-70.152927
1.534E-6	-65.451551
1.534045E-6	-53.217548
1.53409E-6	-39.147094
1.534135E-6	-34.426131
1.53418E-6	-32.340336
1.534225E-6	-31.876215
1.53427E-6	-31.872871
1.534315E-6	-31.949752
1.53436E-6	-32.064191
1.534405E-6	-32.543788
1.53445E-6	-34.636941
1.534495E-6	-39.476909
1.53454E-6	-48.629625
1.534585E-6	-59.653715
1.53463E-6	-65.810362
1.534675E-6	-69.637705
1.53472E-6	-70.868752
1.534765E-6	-68.383326
1.53481E-6	-60.844946
1.534855E-6	-43.603143
1.5349E-6	-36.044989
1.534945E-6	-32.967086
1.53499E-6	-31.968844
1.535035E-6	-31.850203
1.53508E-6	-31.936843
1.535125E-6	-32.054422
1.53517E-6	-32.297373
1.535215E-6	-33.534002
1.53526E-6	-37.088532
1.535305E-6	-44.17255
1.53535E-6	-56.131445
1.535395E-6	-63.170431
1.53544E-6	-68.639139
1.535485E-6	-70.778457
1.53553E-6	-70.058149
1.535575E-6	-65.134278
1.53562E-6	-52.27825
1.535665E-6	-38.948306
1.53571E-6	-34.257372
1.535755E-6	-32.212701
1.5358E-6	-31.821042
1.535845E-6	-31.844887
1.53589E-6	-31.91384
1.535935E-6	-32.051635
1.53598E-6	-32.601113
1.536025E-6	-34.793855
1.53607E-6	-39.75104
1.536115E-6	-50.088182
1.53616E-6	-60.748943
1.536205E-6	-66.328305
1.53625E-6	-70.023952
1.536295E-6	-70.983238
1.53634E-6	-68.317973
1.536385E-6	-60.630843
1.53643E-6	-43.320803
1.536475E-6	-36.001533
1.53652E-6	-33.001623
1.536565E-6	-32.014184
1.53661E-6	-31.920593
1.536655E-6	-31.949071
1.5367E-6	-32.005216
1.536745E-6	-32.20981
1.53679E-6	-33.424661
1.536835E-6	-37.018021
1.53688E-6	-44.32268
1.536925E-6	-56.472388
1.53697E-6	-63.207539
1.537015E-6	-68.709549
1.53706E-6	-70.894823
1.537105E-6	-70.119764
1.53715E-6	-65.182708
1.537195E-6	-52.61378
1.53724E-6	-39.069287
1.537285E-6	-34.387793
1.53733E-6	-32.404077
1.537375E-6	-31.970211
1.53742E-6	-31.946351
1.537465E-6	-31.960652
1.53751E-6	-32.016256
1.537555E-6	-32.493374
1.5376E-6	-34.666093
1.537645E-6	-39.562449
1.53769E-6	-49.75925
1.537735E-6	-60.411495
1.53778E-6	-66.237881
1.537825E-6	-69.884296
1.53787E-6	-70.949601
1.537915E-6	-68.709549
1.53796E-6	-61.654521
1.538005E-6	-44.367563
1.53805E-6	-36.413039
1.538095E-6	-33.154239
1.53814E-6	-32.019021
1.538185E-6	-31.844887
1.53823E-6	-31.816421
1.538275E-6	-31.7993
1.53832E-6	-31.93142
1.538365E-6	-32.982594
1.53841E-6	-36.378947
1.538455E-6	-43.31987
1.5385E-6	-55.545515
1.538545E-6	-62.4344
1.53859E-6	-68.285661
1.538635E-6	-70.766005
1.53868E-6	-70.512937
1.538725E-6	-66.051982
1.53877E-6	-54.136378
1.538815E-6	-40.028758
1.53886E-6	-34.895891
1.538905E-6	-32.658405
1.53895E-6	-32.108425
1.538995E-6	-32.023171
1.53904E-6	-31.980478
1.539085E-6	-31.951113
1.53913E-6	-32.300322
1.539175E-6	-34.238891
1.53922E-6	-39.208188
1.539265E-6	-48.461851
1.53931E-6	-59.653715
1.539355E-6	-65.715412
1.5394E-6	-69.488475
1.539445E-6	-70.882034
1.53949E-6	-69.086848
1.539535E-6	-62.21487
1.53958E-6	-46.8867
1.539625E-6	-36.918626
1.53967E-6	-33.533023
1.539715E-6	-32.21704
1.53976E-6	-31.972947
1.539805E-6	-31.919241
1.53985E-6	-31.862856
1.539895E-6	-31.891628
1.53994E-6	-32.777775
1.539985E-6	-35.802094
1.54003E-6	-42.524328
1.540075E-6	-54.527177
1.54012E-6	-61.859523
1.540165E-6	-67.734001
1.54021E-6	-70.542361
1.540255E-6	-70.646439
1.5403E-6	-66.781945
1.540345E-6	-55.865326
1.54039E-6	-40.834934
1.540435E-6	-35.294425
1.54048E-6	-32.763802
1.540525E-6	-32.065589
1.54057E-6	-31.894987
1.540615E-6	-31.832286
1.54066E-6	-31.815102
1.540705E-6	-32.067686
1.54075E-6	-33.701828
1.540795E-6	-38.099486
1.54084E-6	-46.617428
1.540885E-6	-58.247782
1.54093E-6	-64.541982
1.540975E-6	-69.500071
1.54102E-6	-70.960965
1.541065E-6	-69.714287
1.54111E-6	-64.199879
1.541155E-6	-49.50782
1.5412E-6	-38.029953
1.541245E-6	-34.092696
1.54129E-6	-32.438205
1.541335E-6	-32.030096
1.54138E-6	-31.930742
1.541425E-6	-31.888944
1.54147E-6	-31.919241
1.541515E-6	-32.553159
1.54156E-6	-35.187007
1.541605E-6	-40.738634
1.54165E-6	-51.377493
1.541695E-6	-61.435732
1.54174E-6	-67.119745
1.541785E-6	-70.049355
1.54183E-6	-70.853396
1.541875E-6	-67.597004
1.54192E-6	-59.586073
1.541965E-6	-42.528991
1.54201E-6	-35.75445
1.542055E-6	-32.989504
1.5421E-6	-32.076083
1.542145E-6	-31.8809
1.54219E-6	-31.819722
1.542235E-6	-31.79142
1.54228E-6	-31.897675
1.542325E-6	-33.090954
1.54237E-6	-36.647427
1.542415E-6	-44.000078
1.54246E-6	-56.043242
1.542505E-6	-62.724587
1.54255E-6	-68.419392
1.542595E-6	-70.620811
1.54264E-6	-70.32452
1.542685E-6	-65.592483
1.54273E-6	-53.014645
1.542775E-6	-39.523358
1.54282E-6	-34.614263
1.542865E-6	-32.591638
1.54291E-6	-32.06489
1.542955E-6	-31.971579
1.543E-6	-31.929388
1.543045E-6	-31.892971
1.54309E-6	-32.175274
1.543135E-6	-34.015378
1.54318E-6	-38.761484
1.543225E-6	-48.224635
1.54327E-6	-59.090369
1.543315E-6	-65.179844
1.54336E-6	-69.609827
1.543405E-6	-70.812883
1.54345E-6	-68.992849
1.543495E-6	-62.528991
1.54354E-6	-47.562181
1.543585E-6	-37.124222
1.54363E-6	-33.623102
1.543675E-6	-32.26433
1.54372E-6	-31.957242
1.543765E-6	-31.914514
1.54381E-6	-31.888944
1.543855E-6	-31.894315
1.5439E-6	-32.579823
1.543945E-6	-35.214335
1.54399E-6	-41.056839
1.544035E-6	-51.88291
1.54408E-6	-61.722431
1.544125E-6	-67.031155
1.54417E-6	-70.202696
1.544215E-6	-70.743785
1.54426E-6	-67.406451
1.544305E-6	-58.850556
1.54435E-6	-42.31732
1.544395E-6	-35.856953
1.54444E-6	-33.028579
1.544485E-6	-32.181728
1.54453E-6	-32.046762
1.544575E-6	-32.009353
1.54462E-6	-31.985963
1.544665E-6	-32.087305
1.54471E-6	-33.213906
1.544755E-6	-36.821455
1.5448E-6	-44.271284
1.544845E-6	-56.302277
1.54489E-6	-63.165927
1.544935E-6	-68.560489
1.54498E-6	-70.702746
1.545025E-6	-70.082867
1.54507E-6	-65.233133
1.545115E-6	-52.217764
1.54516E-6	-39.157813
1.545205E-6	-34.541982
1.54525E-6	-32.524328
1.545295E-6	-32.072582
1.54534E-6	-31.985963
1.545385E-6	-31.945671
1.54543E-6	-31.947031
1.545475E-6	-32.28339
1.54552E-6	-34.188471
1.545565E-6	-38.979095
1.54561E-6	-47.964232
1.545655E-6	-59.122186
1.5457E-6	-65.117314
1.545745E-6	-69.673812
1.54579E-6	-70.926424
1.545835E-6	-69.370422
1.54588E-6	-63.310553
1.545925E-6	-48.626459
1.54597E-6	-37.375489
1.546015E-6	-33.685562
1.54606E-6	-32.282656
1.546105E-6	-32.006595
1.54615E-6	-31.950432
1.546195E-6	-31.92668
1.54624E-6	-31.955198
1.546285E-6	-32.548471
1.54633E-6	-34.944431
1.546375E-6	-40.420098
1.54642E-6	-50.979427
1.546465E-6	-61.28077
1.54651E-6	-66.623411
1.546555E-6	-69.995659
1.5466E-6	-70.681863
1.546645E-6	-68.158766
1.54669E-6	-59.689957
1.546735E-6	-43.030324
1.54678E-6	-35.949953
1.546825E-6	-33.07065
1.54687E-6	-32.105603
1.546915E-6	-31.926003
1.54696E-6	-31.870866
1.547005E-6	-31.852199
1.54705E-6	-31.971579
1.547095E-6	-32.972249
1.54714E-6	-36.219657
1.547185E-6	-42.934529
1.54723E-6	-54.797786
1.547275E-6	-61.917215
1.54732E-6	-67.994231
1.547365E-6	-70.540393
1.54741E-6	-70.38484
1.547455E-6	-66.293019
1.5475E-6	-55.22734
1.547545E-6	-40.571985
1.54759E-6	-35.037625
1.547635E-6	-32.623304
1.54768E-6	-31.990081
1.547725E-6	-31.868195
1.54777E-6	-31.851533
1.547815E-6	-31.852864
1.54786E-6	-32.03495
1.547905E-6	-33.393242
1.54795E-6	-37.423214
1.547995E-6	-45.359578
1.54804E-6	-57.115272
1.548085E-6	-63.525192
1.54813E-6	-68.735439
1.548175E-6	-70.700704
1.54822E-6	-69.918258
1.548265E-6	-64.780778
1.54831E-6	-51.271448
1.548355E-6	-38.751699
1.5484E-6	-34.320331
1.548445E-6	-32.356744
1.54849E-6	-31.921269
1.548535E-6	-31.850203
1.54858E-6	-31.837587
1.548625E-6	-31.840903
1.54867E-6	-32.211255
1.548715E-6	-34.14201
1.54876E-6	-39.129288
1.548805E-6	-48.253588
1.54885E-6	-59.30702
1.548895E-6	-65.31505
1.54894E-6	-69.359166
1.548985E-6	-70.890556
1.54903E-6	-69.292235
1.549075E-6	-62.912393
1.54912E-6	-48.380334
1.549165E-6	-37.500682
1.54921E-6	-33.719177
1.549255E-6	-32.210533
1.5493E-6	-31.910467
1.549345E-6	-31.876215
1.54939E-6	-31.86953
1.549435E-6	-31.90373
1.54948E-6	-32.480284
1.549525E-6	-34.89187
1.54957E-6	-40.008695
1.549615E-6	-50.35222
1.54966E-6	-60.718091
1.549705E-6	-66.117211
1.54975E-6	-69.821323
1.549795E-6	-70.919441
1.54984E-6	-68.347557
1.549885E-6	-60.9232
1.54993E-6	-43.964226
1.549975E-6	-36.328305
1.55002E-6	-33.250471
1.550065E-6	-32.186037
1.55011E-6	-31.979107
1.550155E-6	-31.947031
1.5502E-6	-31.9382
1.550245E-6	-31.964063
1.55029E-6	-32.63046
1.550335E-6	-35.362563
1.55038E-6	-41.28719
1.550425E-6	-52.296636
1.55047E-6	-62.070483
1.550515E-6	-67.178312
1.55056E-6	-70.25166
1.550605E-6	-70.611802
1.55065E-6	-67.139929
1.550695E-6	-58.213108
1.55074E-6	-41.809169
1.550785E-6	-35.749551
1.55083E-6	-32.926854
1.550875E-6	-32.087305
1.55092E-6	-31.942274
1.550965E-6	-31.904403
1.55101E-6	-31.890286
1.551055E-6	-31.996266
1.5511E-6	-32.969667
1.551145E-6	-36.289321
1.55119E-6	-43.237638
1.551235E-6	-55.15131
1.55128E-6	-62.082392
1.551325E-6	-67.980569
1.55137E-6	-70.516359
1.551415E-6	-70.500248
1.55146E-6	-66.485902
1.551505E-6	-55.525319
1.55155E-6	-40.898026
1.551595E-6	-35.297366
1.55164E-6	-32.800889
1.551685E-6	-32.107014
1.55173E-6	-31.976368
1.551775E-6	-31.965429
1.55182E-6	-31.947711
1.551865E-6	-32.101374
1.55191E-6	-33.424661
1.551955E-6	-37.194216
1.552E-6	-44.76774
1.552045E-6	-56.468535
1.55209E-6	-63.192114
1.552135E-6	-68.59492
1.55218E-6	-70.730919
1.552225E-6	-70.12736
1.55227E-6	-65.215778
1.552315E-6	-52.526659
1.55236E-6	-39.336741
1.552405E-6	-34.623068
1.55245E-6	-32.55707
1.552495E-6	-32.097852
1.55254E-6	-31.99833
1.552585E-6	-31.955879
1.55263E-6	-31.934131
1.552675E-6	-32.196107
1.55272E-6	-33.827899
1.552765E-6	-38.353498
1.55281E-6	-46.665527
1.552855E-6	-58.175853
1.5529E-6	-64.540747
1.552945E-6	-69.393022
1.55299E-6	-70.868752
1.553035E-6	-69.613798
1.55308E-6	-64.20445
1.553125E-6	-50.489054
1.55317E-6	-38.241984
1.553215E-6	-34.086014
1.55326E-6	-32.323248
1.553305E-6	-31.947711
1.55335E-6	-31.865525
1.553395E-6	-31.819722
1.55344E-6	-31.822364
1.553485E-6	-32.205478
1.55353E-6	-34.100504
1.553575E-6	-38.894103
1.55362E-6	-47.969671
1.553665E-6	-58.941493
1.55371E-6	-64.847887
1.553755E-6	-69.54677
1.5538E-6	-70.94744
1.553845E-6	-69.30702
1.55389E-6	-63.400838
1.553935E-6	-48.722475
1.55398E-6	-37.592012
1.554025E-6	-33.847867
1.55407E-6	-32.416938
1.554115E-6	-32.055817
1.55416E-6	-31.959969
1.554205E-6	-31.91789
1.55425E-6	-31.939558
1.554295E-6	-32.337359
1.55434E-6	-34.439388
1.554385E-6	-39.681877
1.55443E-6	-49.100949
1.554475E-6	-59.880069
1.55452E-6	-65.686362
1.554565E-6	-69.542859
1.55461E-6	-70.903905
1.554655E-6	-68.992849
1.5547E-6	-62.163822
1.554745E-6	-47.048729
1.55479E-6	-37.022395
1.554835E-6	-33.621102
1.55488E-6	-32.367218
1.554925E-6	-32.08871
1.55497E-6	-31.997642
1.555015E-6	-31.994204
1.55506E-6	-32.032176
1.555105E-6	-32.498003
1.55515E-6	-34.756039
1.555195E-6	-39.854795
1.55524E-6	-50.317973
1.555285E-6	-60.556654
1.55533E-6	-66.22876
1.555375E-6	-69.821323
1.55542E-6	-70.8019
1.555465E-6	-68.604357
1.55551E-6	-60.796679
1.555555E-6	-44.020855
1.5556E-6	-36.480105
1.555645E-6	-33.349822
1.55569E-6	-32.282656
1.555735E-6	-32.050939
1.55578E-6	-32.015565
1.555825E-6	-31.984591
1.55587E-6	-31.999706
1.555915E-6	-32.512694
1.55596E-6	-34.89187
1.556005E-6	-40.307705
1.55605E-6	-50.872998
1.556095E-6	-61.026479
1.55614E-6	-66.532559
1.556185E-6	-69.93962
1.55623E-6	-70.782095
1.556275E-6	-68.50473
1.55632E-6	-60.59633
1.556365E-6	-43.810111
1.55641E-6	-36.437829
1.556455E-6	-33.299398
1.5565E-6	-32.198988
1.556545E-6	-31.990768
1.55659E-6	-31.949071
1.556635E-6	-31.9382
1.55668E-6	-31.994891
1.556725E-6	-32.624098
1.55677E-6	-35.214335
1.556815E-6	-40.820221
1.55686E-6	-51.394224
1.556905E-6	-61.416433
1.55695E-6	-66.779876
1.556995E-6	-70.19633
1.55704E-6	-70.781055
1.557085E-6	-68.320922
1.55713E-6	-60.409586
1.557175E-6	-43.623102
1.55722E-6	-36.151092
1.557265E-6	-33.139002
1.55731E-6	-32.041895
1.557355E-6	-31.84024
1.5574E-6	-31.822364
1.557445E-6	-31.819722
1.55749E-6	-31.865525
1.557535E-6	-32.58612
1.55758E-6	-35.322439
1.557625E-6	-41.233204
1.55767E-6	-51.800614
1.557715E-6	-61.701818
1.55776E-6	-66.844495
1.557805E-6	-70.243385
1.55785E-6	-70.872998
1.557895E-6	-68.244882
1.55794E-6	-60.0975
1.557985E-6	-43.579314
1.55803E-6	-36.324577
1.558075E-6	-33.233064
1.55812E-6	-32.095741
1.558165E-6	-31.863523
1.55821E-6	-31.854195
1.558255E-6	-31.864857
1.5583E-6	-31.91249
1.558345E-6	-32.644809
1.55839E-6	-35.499049
1.558435E-6	-41.473371
1.55848E-6	-52.145278
1.558525E-6	-62.021787
1.55857E-6	-67.075224
1.558615E-6	-70.268721
1.55866E-6	-70.951222
1.558705E-6	-68.190144
1.55875E-6	-59.986991
1.558795E-6	-43.456309
1.55884E-6	-36.210573
1.558885E-6	-33.203904
1.55893E-6	-32.130357
1.558975E-6	-31.944991
1.55902E-6	-31.957924
1.559065E-6	-31.952474
1.55911E-6	-32.02594
1.559155E-6	-32.750691
1.5592E-6	-35.442418
1.559245E-6	-41.258082
1.55929E-6	-52.032869
1.559335E-6	-61.886261
1.55938E-6	-67.256112
1.559425E-6	-70.349395
1.55947E-6	-70.902835
1.559515E-6	-68.250684
1.55956E-6	-59.956786
1.559605E-6	-43.114022
1.55965E-6	-35.998075
1.559695E-6	-33.129172
1.55974E-6	-32.130357
1.559785E-6	-31.983905
1.55983E-6	-31.999018
1.559875E-6	-32.026632
1.55992E-6	-32.116902
1.559965E-6	-32.856702
1.56001E-6	-35.587763
1.560055E-6	-41.529829
1.5601E-6	-52.192508
1.560145E-6	-61.988708
1.56019E-6	-67.185121
1.560235E-6	-70.288634
1.56028E-6	-71.086856
1.560325E-6	-68.610661
1.56037E-6	-60.869283
1.560415E-6	-44.026339
1.56046E-6	-36.247023
1.560505E-6	-33.139897
1.56055E-6	-32.019712
1.560595E-6	-31.866192
1.56064E-6	-31.876215
1.560685E-6	-31.893643
1.56073E-6	-32.010733
1.560775E-6	-32.76134
1.56082E-6	-35.488278
1.560865E-6	-41.385253
1.56091E-6	-52.176707
1.560955E-6	-61.826991
1.561E-6	-67.194216
1.561045E-6	-70.370627
1.56109E-6	-70.958798
1.561135E-6	-68.554258
1.56118E-6	-60.849697
1.561225E-6	-44.017568
1.56127E-6	-36.232406
1.561315E-6	-33.053948
1.56136E-6	-32.006595
1.561405E-6	-31.830962
1.56145E-6	-31.842231
1.561495E-6	-31.911141
1.56154E-6	-32.024555
1.561585E-6	-32.660007
1.56163E-6	-35.201369
1.561675E-6	-40.842837
1.56172E-6	-51.354296
1.561765E-6	-61.289527
1.56181E-6	-66.703988
1.561855E-6	-70.237418
1.5619E-6	-71.262726
1.561945E-6	-69.215432
1.56199E-6	-62.483361
1.562035E-6	-47.358908
1.56208E-6	-36.940041
1.562125E-6	-33.452461
1.56217E-6	-32.095741
1.562215E-6	-31.868195
1.56226E-6	-31.89902
1.562305E-6	-31.965429
1.56235E-6	-32.069783
1.562395E-6	-32.563335
1.56244E-6	-34.719837
1.562485E-6	-39.54677
1.56253E-6	-49.211808
1.562575E-6	-60.092173
1.56262E-6	-65.81533
1.562665E-6	-69.829667
1.56271E-6	-71.259823
1.562755E-6	-69.669786
1.5628E-6	-63.504704
1.562845E-6	-48.955129
1.56289E-6	-37.481185
1.562935E-6	-33.584267
1.56298E-6	-32.076083
1.563025E-6	-31.792076
1.56307E-6	-31.814442
1.563115E-6	-31.904403
1.56316E-6	-32.008663
1.563205E-6	-32.449641
1.56325E-6	-34.503838
1.563295E-6	-39.393022
1.56334E-6	-49.069287
1.563385E-6	-59.775716
1.56343E-6	-65.483671
1.563475E-6	-69.730584
