Wavelength (nm)	Power (dBm)
1.525E-6	-84.35926
1.525045E-6	-81.790108
1.52509E-6	-82.595584
1.525135E-6	-83.870043
1.52518E-6	-87.009287
1.525225E-6	-120
1.52527E-6	-93.202996
1.525315E-6	-90.126019
1.52536E-6	-86.942188
1.525405E-6	-94.605475
1.52545E-6	-92.817475
1.525495E-6	-87.999707
1.52554E-6	-86.36388
1.525585E-6	-81.988022
1.52563E-6	-81.83825
1.525675E-6	-80.754623
1.52572E-6	-81.030331
1.525765E-6	-81.872203
1.52581E-6	-80.59932
1.525855E-6	-81.46241
1.5259E-6	-82.148126
1.525945E-6	-85.094797
1.52599E-6	-98.507809
1.526035E-6	-89.381707
1.52608E-6	-90.303046
1.526125E-6	-120
1.52617E-6	-90.168701
1.526215E-6	-95.071
1.52626E-6	-90.497812
1.526305E-6	-83.889143
1.52635E-6	-81.060164
1.526395E-6	-81.031983
1.52644E-6	-80.158329
1.526485E-6	-80.08641
1.52653E-6	-79.488475
1.526575E-6	-79.503944
1.52662E-6	-79.657727
1.526665E-6	-81.156012
1.52671E-6	-85.041782
1.526755E-6	-87.066374
1.5268E-6	-92.548471
1.526845E-6	-120
1.52689E-6	-93.976144
1.526935E-6	-90.748943
1.52698E-6	-87.084092
1.527025E-6	-85.313573
1.52707E-6	-83.267026
1.527115E-6	-80.520764
1.52716E-6	-79.385475
1.527205E-6	-78.629625
1.52725E-6	-80.559123
1.527295E-6	-78.728952
1.52734E-6	-78.452718
1.527385E-6	-78.45576
1.52743E-6	-79.193735
1.527475E-6	-81.018784
1.52752E-6	-85.73977
1.527565E-6	-86.390281
1.52761E-6	-120
1.527655E-6	-89.657727
1.5277E-6	-89.037854
1.527745E-6	-120
1.52779E-6	-90.987597
1.527835E-6	-84.955291
1.52788E-6	-80.954467
1.527925E-6	-78.732194
1.52797E-6	-77.672579
1.528015E-6	-77.584535
1.52806E-6	-77.734001
1.528105E-6	-77.870138
1.52815E-6	-78.054857
1.528195E-6	-78.979095
1.52824E-6	-79.825493
1.528285E-6	-82.398038
1.52833E-6	-86.138579
1.528375E-6	-86.411138
1.52842E-6	-120
1.528465E-6	-120
1.52851E-6	-113.78616
1.528555E-6	-88.674202
1.5286E-6	-85.900669
1.528645E-6	-80.47256
1.52869E-6	-77.859513
1.528735E-6	-76.873996
1.52878E-6	-77.351822
1.528825E-6	-76.905828
1.52887E-6	-76.972363
1.528915E-6	-77.135435
1.52896E-6	-77.242281
1.529005E-6	-78.693447
1.52905E-6	-80.857627
1.529095E-6	-85.43027
1.52914E-6	-88.790972
1.529185E-6	-94.792545
1.52923E-6	-120
1.529275E-6	-93.417977
1.52932E-6	-87.233085
1.529365E-6	-87.283907
1.52941E-6	-80.279361
1.529455E-6	-78.116341
1.5295E-6	-77.007107
1.529545E-6	-76.916491
1.52959E-6	-76.757175
1.529635E-6	-76.848697
1.52968E-6	-76.675615
1.529725E-6	-76.621416
1.52977E-6	-77.363639
1.529815E-6	-79.150664
1.52986E-6	-83.716111
1.529905E-6	-92.844144
1.52995E-6	-120
1.529995E-6	-88.44057
1.53004E-6	-120
1.530085E-6	-110.76756
1.53013E-6	-89.755143
1.530175E-6	-82.292952
1.53022E-6	-78.501653
1.530265E-6	-76.742791
1.53031E-6	-76.424463
1.530355E-6	-76.217839
1.5304E-6	-76.143937
1.530445E-6	-75.961934
1.53049E-6	-75.992894
1.530535E-6	-76.558043
1.53058E-6	-78.175853
1.530625E-6	-81.88157
1.53067E-6	-87.721133
1.530715E-6	-90.940962
1.53076E-6	-120
1.530805E-6	-120
1.53085E-6	-88.141746
1.530895E-6	-120
1.53094E-6	-83.084765
1.530985E-6	-79.825493
1.53103E-6	-77.18285
1.531075E-6	-76.143937
1.53112E-6	-76.013657
1.531165E-6	-75.922693
1.53121E-6	-76.118988
1.531255E-6	-76.076548
1.5313E-6	-76.066003
1.531345E-6	-77.46662
1.53139E-6	-79.434763
1.531435E-6	-84.30509
1.53148E-6	-87.464197
1.531525E-6	-94.947143
1.53157E-6	-99.076303
1.531615E-6	-88.992849
1.53166E-6	-97.210179
1.531705E-6	-88.173001
1.53175E-6	-81.455118
1.531795E-6	-77.219327
1.53184E-6	-76.185239
1.531885E-6	-75.861975
1.53193E-6	-75.836924
1.531975E-6	-76.499459
1.53202E-6	-76.371407
1.532065E-6	-76.550186
1.53211E-6	-76.85922
1.532155E-6	-78.648673
1.5322E-6	-81.769172
1.532245E-6	-87.624563
1.53229E-6	-88.088285
1.532335E-6	-93.849974
1.53238E-6	-120
1.532425E-6	-87.20105
1.53247E-6	-89.800533
1.532515E-6	-82.650402
1.53256E-6	-78.958544
1.532605E-6	-76.74895
1.53265E-6	-76.601512
1.532695E-6	-76.369524
1.53274E-6	-76.08712
1.532785E-6	-76.256183
1.53283E-6	-76.185239
1.532875E-6	-76.341378
1.53292E-6	-77.765041
1.532965E-6	-80.687456
1.53301E-6	-86.243364
1.533055E-6	-120
1.5331E-6	-91.798642
1.533145E-6	-120
1.53319E-6	-89.609827
1.533235E-6	-93.160529
1.53328E-6	-84.91201
1.533325E-6	-85.117314
1.53337E-6	-77.510464
1.533415E-6	-76.313413
1.53346E-6	-76.397854
1.533505E-6	-76.647427
1.53355E-6	-76.418747
1.533595E-6	-76.462761
1.53364E-6	-76.880343
1.533685E-6	-77.90485
1.53373E-6	-80.318441
1.533775E-6	-83.606131
1.53382E-6	-87.18285
1.533865E-6	-120
1.53391E-6	-94.818811
1.533955E-6	-98.53872
1.534E-6	-94.42132
1.534045E-6	-87.692957
1.53409E-6	-84.580465
1.534135E-6	-79.34047
1.53418E-6	-77.572102
1.534225E-6	-77.461776
1.53427E-6	-77.194216
1.534315E-6	-77.544873
1.53436E-6	-77.980569
1.534405E-6	-77.153437
1.53445E-6	-77.772835
1.534495E-6	-79.50782
1.53454E-6	-82.346295
1.534585E-6	-88.566729
1.53463E-6	-96.912222
1.534675E-6	-120
1.53472E-6	-99.943906
1.534765E-6	-90.805558
1.53481E-6	-90.193604
1.534855E-6	-84.825402
1.5349E-6	-82.148838
1.534945E-6	-79.408154
1.53499E-6	-77.607005
1.535035E-6	-78.291518
1.53508E-6	-77.765041
1.535125E-6	-77.907532
1.53517E-6	-77.454519
1.535215E-6	-77.867479
1.53526E-6	-79.566377
1.535305E-6	-81.560824
1.53535E-6	-86.192462
1.535395E-6	-88.492436
1.53544E-6	-97.090754
1.535485E-6	-89.982663
1.53553E-6	-120
1.535575E-6	-93.715089
1.53562E-6	-120
1.535665E-6	-84.140883
1.53571E-6	-80.804512
1.535755E-6	-78.979095
1.5358E-6	-78.431481
1.535845E-6	-78.78112
1.53589E-6	-78.635966
1.535935E-6	-78.523237
1.53598E-6	-78.732194
1.536025E-6	-79.535048
1.53607E-6	-81.333583
1.536115E-6	-83.857357
1.53616E-6	-90.55616
1.536205E-6	-106.328305
1.53625E-6	-92.922595
1.536295E-6	-90.020896
1.53634E-6	-89.982663
1.536385E-6	-92.28633
1.53643E-6	-86.976691
1.536475E-6	-82.990368
1.53652E-6	-79.850597
1.536565E-6	-79.020489
1.53661E-6	-78.9279
1.536655E-6	-79.090369
1.5367E-6	-78.931295
1.536745E-6	-79.115095
1.53679E-6	-79.055289
1.536835E-6	-79.808837
1.53688E-6	-82.553941
1.536925E-6	-85.319482
1.53697E-6	-89.653715
1.537015E-6	-88.850556
1.53706E-6	-120
1.537105E-6	-89.738755
1.53715E-6	-92.136746
1.537195E-6	-120
1.53724E-6	-84.748256
1.537285E-6	-81.71469
1.53733E-6	-80.024826
1.537375E-6	-79.943906
1.53742E-6	-79.821323
1.537465E-6	-79.351678
1.53751E-6	-79.734667
1.537555E-6	-79.825493
1.5376E-6	-79.3968
1.537645E-6	-82.04398
1.53769E-6	-84.234283
1.537735E-6	-90.63235
1.53778E-6	-120
1.537825E-6	-94.074902
1.53787E-6	-94.748256
1.537915E-6	-96.416844
1.53796E-6	-91.018235
1.538005E-6	-87.804155
1.53805E-6	-83.764406
1.538095E-6	-80.5061
1.53814E-6	-79.450041
1.538185E-6	-79.952488
1.53823E-6	-79.115095
1.538275E-6	-79.685915
1.53832E-6	-80.406247
1.538365E-6	-79.880069
1.53841E-6	-81.307096
1.538455E-6	-82.429838
1.5385E-6	-86.579723
1.538545E-6	-92.6946
1.53859E-6	-99.694003
1.538635E-6	-91.593294
1.53868E-6	-96.78816
1.538725E-6	-93.46884
1.53877E-6	-92.045371
1.538815E-6	-85.4546
1.53886E-6	-81.159414
1.538905E-6	-79.625735
1.53895E-6	-80.204061
1.538995E-6	-79.613798
1.53904E-6	-79.755143
1.539085E-6	-79.649707
1.53913E-6	-79.538952
1.539175E-6	-79.273825
1.53922E-6	-81.614027
1.539265E-6	-86.111886
1.53931E-6	-87.075224
1.539355E-6	-92.786841
1.5394E-6	-94.895891
1.539445E-6	-89.880069
1.53949E-6	-120
1.539535E-6	-92.521999
1.53958E-6	-86.538427
1.539625E-6	-83.480439
1.53967E-6	-80.681863
1.539715E-6	-79.991323
1.53976E-6	-79.93534
1.539805E-6	-79.175737
1.53985E-6	-78.917733
1.539895E-6	-79.605859
1.53994E-6	-79.779843
1.539985E-6	-80.103278
1.54003E-6	-82.595584
1.540075E-6	-87.293212
1.54012E-6	-89.492337
1.540165E-6	-99.381707
1.54021E-6	-91.024829
1.540255E-6	-92.419212
1.5403E-6	-98.190144
1.540345E-6	-93.438059
1.54039E-6	-85.603516
1.540435E-6	-81.427278
1.54048E-6	-80.124231
1.540525E-6	-79.344203
1.54057E-6	-79.172146
1.540615E-6	-79.393022
1.54066E-6	-79.027427
1.540705E-6	-79.157813
1.54075E-6	-79.093893
1.540795E-6	-81.442992
1.54084E-6	-84.031831
1.540885E-6	-87.447275
1.54093E-6	-120
1.540975E-6	-89.270153
1.54102E-6	-91.020432
1.541065E-6	-120
1.54111E-6	-120
1.541155E-6	-90.552706
1.5412E-6	-85.272436
1.541245E-6	-80.341401
1.54129E-6	-78.9279
1.541335E-6	-78.748442
1.54138E-6	-79.164974
1.541425E-6	-78.671002
1.54147E-6	-78.999743
1.541515E-6	-78.804142
1.54156E-6	-79.262816
1.541605E-6	-81.340082
1.54165E-6	-84.624327
1.541695E-6	-90.934495
1.54174E-6	-92.739251
1.541785E-6	-120
1.54183E-6	-87.775437
1.541875E-6	-96.893067
1.54192E-6	-120
1.541965E-6	-86.893067
1.54201E-6	-81.351924
1.542055E-6	-79.846402
1.5421E-6	-78.847224
1.542145E-6	-78.407337
1.54219E-6	-78.529423
1.542235E-6	-78.642315
1.54228E-6	-78.800846
1.542325E-6	-78.807441
1.54237E-6	-79.689957
1.542415E-6	-81.932775
1.54246E-6	-86.118988
1.542505E-6	-120
1.54255E-6	-95.633604
1.542595E-6	-120
1.54264E-6	-120
1.542685E-6	-120
1.54273E-6	-87.89414
1.542775E-6	-83.87428
1.54282E-6	-80.185892
1.542865E-6	-79.28118
1.54291E-6	-78.560489
1.542955E-6	-78.53252
1.543E-6	-78.434508
1.543045E-6	-77.632109
1.54309E-6	-77.953375
1.543135E-6	-79.034376
1.54318E-6	-80.490027
1.543225E-6	-83.898724
1.54327E-6	-93.061851
1.543315E-6	-87.293212
1.54336E-6	-103.570411
1.543405E-6	-120
1.54345E-6	-96.625407
1.543495E-6	-91.303577
1.54354E-6	-88.210231
1.543585E-6	-82.313619
1.54363E-6	-79.251836
1.543675E-6	-79.093893
1.54372E-6	-78.395315
1.543765E-6	-78.620133
1.54381E-6	-78.121974
1.543855E-6	-78.850556
1.5439E-6	-78.560489
1.543945E-6	-79.590023
1.54399E-6	-80.839147
1.544035E-6	-85.221555
1.54408E-6	-88.27689
1.544125E-6	-120
1.54417E-6	-120
1.544215E-6	-87.210179
1.54426E-6	-120
1.544305E-6	-92.501092
1.54435E-6	-85.448505
1.544395E-6	-81.595802
1.54444E-6	-79.393022
1.544485E-6	-78.395315
1.54453E-6	-78.065971
1.544575E-6	-78.377344
1.54462E-6	-78.395315
1.544665E-6	-78.150248
1.54471E-6	-78.294449
1.544755E-6	-79.303319
1.5448E-6	-81.960652
1.544845E-6	-85.304725
1.54489E-6	-86.625407
1.544935E-6	-91.47398
1.54498E-6	-93.748934
1.545025E-6	-87.230789
1.54507E-6	-80.463369
1.545115E-6	-66.360122
1.54516E-6	-52.498775
1.545205E-6	-46.513058
1.54525E-6	-43.760275
1.545295E-6	-43.2615
1.54534E-6	-43.215727
1.545385E-6	-43.185778
1.54543E-6	-43.198459
1.545475E-6	-43.606131
1.54552E-6	-45.58462
1.545565E-6	-50.323584
1.54561E-6	-59.93962
1.545655E-6	-68.616973
1.5457E-6	-75.800443
1.545745E-6	-81.374512
1.54579E-6	-85.335773
1.545835E-6	-89.197344
1.54588E-6	-107.146678
1.545925E-6	-86.855008
1.54597E-6	-83.677452
1.546015E-6	-79.625735
1.54606E-6	-78.520147
1.546105E-6	-78.359447
1.54615E-6	-78.259402
1.546195E-6	-78.06041
1.54624E-6	-78.021683
1.546285E-6	-78.353498
1.54633E-6	-78.807441
1.546375E-6	-80.385314
1.54642E-6	-84.008814
1.546465E-6	-89.010104
1.54651E-6	-92.395021
1.546555E-6	-92.427558
1.5466E-6	-89.229957
1.546645E-6	-82.63046
1.54669E-6	-74.459957
1.546735E-6	-58.093882
1.54678E-6	-48.626459
1.546825E-6	-44.429743
1.54687E-6	-43.364875
1.546915E-6	-43.179452
1.54696E-6	-43.139897
1.547005E-6	-43.113133
1.54705E-6	-43.247717
1.547095E-6	-44.40213
1.54714E-6	-47.947956
1.547185E-6	-55.100415
1.54723E-6	-64.059391
1.547275E-6	-72.517344
1.54732E-6	-79.34047
1.547365E-6	-83.684548
1.54741E-6	-85.951663
1.547455E-6	-90.797201
1.5475E-6	-90.876185
1.547545E-6	-83.304042
1.54759E-6	-80.606805
1.547635E-6	-78.582368
1.54768E-6	-78.133261
1.547725E-6	-78.23041
1.54777E-6	-78.167302
1.547815E-6	-79.3968
1.54786E-6	-78.410347
1.547905E-6	-78.359447
1.54795E-6	-79.284862
1.547995E-6	-82.458046
1.54804E-6	-86.903698
1.548085E-6	-92.246809
1.54813E-6	-89.370422
1.548175E-6	-89.480761
1.54822E-6	-84.113922
1.548265E-6	-79.783973
1.54831E-6	-64.585456
1.548355E-6	-51.451476
1.5484E-6	-45.474469
1.548445E-6	-43.512498
1.54849E-6	-43.139002
1.548535E-6	-43.044308
1.54858E-6	-43.041682
1.548625E-6	-43.059215
1.54867E-6	-43.515424
1.548715E-6	-45.654311
1.54876E-6	-50.643416
1.548805E-6	-60.925349
1.54885E-6	-69.147094
1.548895E-6	-76.36388
1.54894E-6	-81.270284
1.548985E-6	-86.728455
1.54903E-6	-87.490923
1.549075E-6	-88.576105
1.54912E-6	-86.581699
1.549165E-6	-82.329926
1.54921E-6	-79.488475
1.549255E-6	-78.347557
1.5493E-6	-78.121974
1.549345E-6	-77.549811
1.54939E-6	-78.85389
1.549435E-6	-77.929045
1.54948E-6	-77.980569
1.549525E-6	-78.917733
1.54957E-6	-79.476909
1.549615E-6	-83.847867
1.54966E-6	-86.520848
1.549705E-6	-93.752024
1.54975E-6	-97.632109
1.549795E-6	-87.235382
1.54984E-6	-82.623304
1.549885E-6	-74.786004
1.54993E-6	-58.706324
1.549975E-6	-48.732194
1.55002E-6	-44.374692
1.550065E-6	-43.214816
1.55011E-6	-43.048687
1.550155E-6	-42.977418
1.5502E-6	-42.986047
1.550245E-6	-43.036436
1.55029E-6	-43.870043
1.550335E-6	-46.869769
1.55038E-6	-53.195738
1.550425E-6	-62.389747
1.55047E-6	-71.245914
1.550515E-6	-78.291518
1.55056E-6	-82.641617
1.550605E-6	-86.92718
1.55065E-6	-92.019712
1.550695E-6	-86.781945
1.55074E-6	-84.133002
1.550785E-6	-80.955008
1.55083E-6	-78.535619
1.550875E-6	-78.419392
1.55092E-6	-78.130437
1.550965E-6	-77.342391
1.55101E-6	-77.79369
1.551055E-6	-77.872798
1.5511E-6	-78.398317
1.551145E-6	-79.473061
1.55119E-6	-81.076827
1.551235E-6	-86.010189
1.55128E-6	-90.450824
1.551325E-6	-96.375175
1.55137E-6	-91.790108
1.551415E-6	-95.999804
1.55146E-6	-120
1.551505E-6	-88.623295
1.55155E-6	-83.607128
1.551595E-6	-80.532531
1.55164E-6	-78.356471
1.551685E-6	-78.068754
1.55173E-6	-77.93714
1.551775E-6	-78.153086
1.55182E-6	-78.16161
1.551865E-6	-77.233085
1.55191E-6	-77.920965
1.551955E-6	-78.827287
1.552E-6	-81.486805
1.552045E-6	-86.846595
1.55209E-6	-93.275327
1.552135E-6	-87.10634
1.55218E-6	-89.175737
1.552225E-6	-91.867527
1.55227E-6	-120
1.552315E-6	-92.382225
1.55236E-6	-83.025091
1.552405E-6	-80.828622
1.55245E-6	-78.725712
1.552495E-6	-78.096683
1.55254E-6	-77.891466
1.552585E-6	-77.718564
1.55263E-6	-78.005191
1.552675E-6	-77.10411
1.55272E-6	-78.198741
1.552765E-6	-79.637705
1.55281E-6	-82.504956
1.552855E-6	-85.600361
1.5529E-6	-120
1.552945E-6	-120
1.55299E-6	-120
1.553035E-6	-120
1.55308E-6	-98.823973
1.553125E-6	-108.857227
1.55317E-6	-94.835969
1.553215E-6	-79.400581
1.55326E-6	-78.141746
1.553305E-6	-77.780644
1.55335E-6	-77.654827
1.553395E-6	-77.413627
1.55344E-6	-77.721133
1.553485E-6	-77.344747
1.55353E-6	-78.116341
1.553575E-6	-79.718356
1.55362E-6	-82.416938
1.553665E-6	-92.338103
1.55371E-6	-120
1.553755E-6	-88.052082
1.5538E-6	-86.352614
1.553845E-6	-120
1.55389E-6	-93.472703
1.553935E-6	-85.670307
1.55398E-6	-82.013494
1.554025E-6	-78.645493
1.55407E-6	-78.08549
1.554115E-6	-78.138916
1.55416E-6	-77.449688
1.554205E-6	-77.891466
1.55425E-6	-77.539941
1.554295E-6	-77.670039
1.55434E-6	-78.288588
1.554385E-6	-80
1.55443E-6	-84.143137
1.554475E-6	-87.244583
1.55452E-6	-89.965395
1.554565E-6	-92.249724
1.55461E-6	-92.814153
1.554655E-6	-95.292956
1.5547E-6	-90.130045
1.554745E-6	-88.639139
1.55479E-6	-81.429088
1.554835E-6	-79.069287
1.55488E-6	-78.052082
1.554925E-6	-77.258422
1.55497E-6	-78.005191
1.555015E-6	-77.428016
1.55506E-6	-77.547342
1.555105E-6	-77.139929
1.55515E-6	-78.362425
1.555195E-6	-80.112627
1.55524E-6	-85.09199
1.555285E-6	-89.111554
1.55533E-6	-94.146521
1.555375E-6	-89.329291
1.55542E-6	-100.617806
1.555465E-6	-92.522775
1.55551E-6	-90.980515
1.555555E-6	-85.780672
1.5556E-6	-81.907097
1.555645E-6	-78.489367
1.55569E-6	-77.337683
1.555735E-6	-77.878124
1.55578E-6	-77.418418
1.555825E-6	-77.654827
1.55587E-6	-77.144427
1.555915E-6	-77.629592
1.55596E-6	-78.498578
1.556005E-6	-79.796387
1.55605E-6	-83.898724
1.556095E-6	-97.851562
1.55614E-6	-97.23768
1.556185E-6	-92.456517
1.55623E-6	-101.578902
1.556275E-6	-89.058784
1.55632E-6	-88.144578
1.556365E-6	-85.121549
1.55641E-6	-81.018784
1.556455E-6	-78.184422
1.5565E-6	-76.811023
1.556545E-6	-77.557229
1.55659E-6	-77.233085
1.556635E-6	-77.896815
1.55668E-6	-77.013652
1.556725E-6	-76.944337
1.55677E-6	-78.16161
1.556815E-6	-79.969705
1.55686E-6	-84.878495
1.556905E-6	-87.582046
1.55695E-6	-120
1.556995E-6	-120
1.55704E-6	-98.877302
1.557085E-6	-92.377717
1.55713E-6	-120
1.557175E-6	-85.627252
1.55722E-6	-80.76031
1.557265E-6	-77.980569
1.55731E-6	-77.515363
1.557355E-6	-78.010681
1.5574E-6	-77.110804
1.557445E-6	-77.290884
1.55749E-6	-77.931741
1.557535E-6	-77.644716
1.55758E-6	-78.043771
1.557625E-6	-79.922522
1.55767E-6	-85.195619
1.557715E-6	-91.035289
1.55776E-6	-90.39339
1.557805E-6	-94.118404
1.55785E-6	-93.012907
1.557895E-6	-120
1.55794E-6	-97.856861
1.557985E-6	-85.595632
1.55803E-6	-80.985417
1.558075E-6	-78.210231
1.55812E-6	-77.654827
1.558165E-6	-77.368375
1.55821E-6	-77.223908
1.558255E-6	-77.557229
1.5583E-6	-77.21475
1.558345E-6	-77.535014
1.55839E-6	-78.268137
1.558435E-6	-79.905491
1.55848E-6	-84.512422
1.558525E-6	-91.371533
1.55857E-6	-100.317973
1.558615E-6	-91.436941
1.55866E-6	-93.930815
1.558705E-6	-92.161679
1.55875E-6	-88.492436
1.558795E-6	-86.844495
1.55884E-6	-81.02978
1.558885E-6	-78.032713
1.55893E-6	-77.956087
1.558975E-6	-77.428016
1.55902E-6	-77.825161
1.559065E-6	-77.93444
1.55911E-6	-78.279812
1.559155E-6	-77.966951
1.5592E-6	-78.38632
1.559245E-6	-80.098832
1.55929E-6	-84.187332
1.559335E-6	-85.43027
1.55938E-6	-91.141301
1.559425E-6	-120
1.55947E-6	-120
1.559515E-6	-120
1.55956E-6	-92.626483
1.559605E-6	-85.418156
1.55965E-6	-81.248808
1.559695E-6	-78.193008
1.55974E-6	-78.268137
1.559785E-6	-77.657359
1.55983E-6	-77.687854
1.559875E-6	-78.31208
1.55992E-6	-77.822529
1.559965E-6	-76.472388
1.56001E-6	-78.495506
1.560055E-6	-79.75925
1.5601E-6	-86.258017
1.560145E-6	-87.639669
1.56019E-6	-91.471542
1.560235E-6	-90.025262
1.56028E-6	-120
1.560325E-6	-120
1.56037E-6	-92.965367
1.560415E-6	-87.597004
1.56046E-6	-80.879906
1.560505E-6	-79.136402
1.56055E-6	-78.416375
1.560595E-6	-77.791078
1.56064E-6	-77.520267
1.560685E-6	-77.969671
1.56073E-6	-78.041003
1.560775E-6	-78.958544
1.56082E-6	-79.143527
1.560865E-6	-81.18159
1.56091E-6	-85.54863
1.560955E-6	-85.453076
1.561E-6	-91.554607
1.561045E-6	-97.94525
1.56109E-6	-95.240384
1.561135E-6	-103.935111
1.56118E-6	-92.261404
1.561225E-6	-91.893643
1.56127E-6	-81.079611
1.561315E-6	-79.706162
1.56136E-6	-79.020489
1.561405E-6	-78.495506
1.56145E-6	-78.658229
1.561495E-6	-78.4649
1.56154E-6	-78.389316
1.561585E-6	-78.687022
1.56163E-6	-79.164974
1.561675E-6	-81.143561
1.56172E-6	-84.152166
1.561765E-6	-90.827046
1.56181E-6	-99.048306
1.561855E-6	-120
1.5619E-6	-120
1.561945E-6	-94.260846
1.56199E-6	-89.208188
1.562035E-6	-87.552282
1.56208E-6	-83.951262
1.562125E-6	-79.842212
1.56217E-6	-78.843895
1.562215E-6	-78.616973
1.56226E-6	-78.725712
1.562305E-6	-79.381707
1.56235E-6	-79.069287
1.562395E-6	-79.069287
1.56244E-6	-79.129288
1.562485E-6	-81.621591
1.56253E-6	-85.086383
1.562575E-6	-88.498578
1.56262E-6	-94.252744
1.562665E-6	-89.918258
1.56271E-6	-120
1.562755E-6	-89.880069
1.5628E-6	-87.396901
1.562845E-6	-88.629625
1.56289E-6	-83.706924
1.562935E-6	-81.699891
1.56298E-6	-79.714287
1.563025E-6	-79.351678
1.56307E-6	-79.182927
1.563115E-6	-79.111554
1.56316E-6	-79.956786
1.563205E-6	-78.982529
1.56325E-6	-80.34234
1.563295E-6	-81.367961
1.56334E-6	-83.102473
1.563385E-6	-87.77804
1.56343E-6	-91.721786
1.563475E-6	-98.17015
1.56352E-6	-97.634627
1.563565E-6	-93.370534
1.56361E-6	-87.377863
1.563655E-6	-90.555667
1.5637E-6	-86.004993
1.563745E-6	-81.392429
1.56379E-6	-80.591848
1.563835E-6	-79.503944
1.56388E-6	-79.991323
1.563925E-6	-79.738755
1.56397E-6	-79.829667
1.564015E-6	-81.03584
1.56406E-6	-80.298392
1.564105E-6	-81.826991
