Wavelength (nm)	Power (dBm)
1.525E-6	-47.715996
1.525045E-6	-47.609509
1.52509E-6	-47.522722
1.525135E-6	-47.430418
1.52518E-6	-47.33298
1.525225E-6	-47.230789
1.52527E-6	-47.128704
1.525315E-6	-47.042131
1.52536E-6	-46.957249
1.525405E-6	-46.846595
1.52545E-6	-46.759234
1.525495E-6	-46.655462
1.52554E-6	-46.560009
1.525585E-6	-46.462761
1.52563E-6	-46.36388
1.525675E-6	-46.278247
1.52572E-6	-46.169031
1.525765E-6	-46.101254
1.52581E-6	-46.010189
1.525855E-6	-45.967079
1.5259E-6	-45.902359
1.525945E-6	-45.858626
1.52599E-6	-45.803746
1.526035E-6	-45.718652
1.52608E-6	-45.647929
1.526125E-6	-45.586191
1.52617E-6	-45.533075
1.526215E-6	-45.446982
1.52626E-6	-45.349147
1.526305E-6	-45.26513
1.52635E-6	-45.168408
1.526395E-6	-45.094797
1.52644E-6	-45.027938
1.526485E-6	-44.967542
1.52653E-6	-44.907975
1.526575E-6	-44.835969
1.52662E-6	-44.814861
1.526665E-6	-44.766438
1.52671E-6	-44.74178
1.526755E-6	-44.708264
1.5268E-6	-44.696722
1.526845E-6	-44.649592
1.52689E-6	-44.581712
1.526935E-6	-44.545692
1.52698E-6	-44.48672
1.527025E-6	-44.418917
1.52707E-6	-44.319157
1.527115E-6	-44.251588
1.52716E-6	-44.144265
1.527205E-6	-44.12289
1.52725E-6	-44.069356
1.527295E-6	-44.038429
1.52734E-6	-44.008814
1.527385E-6	-43.971807
1.52743E-6	-43.980486
1.527475E-6	-43.982659
1.52752E-6	-44.016473
1.527565E-6	-43.997897
1.52761E-6	-43.955579
1.527655E-6	-43.940488
1.5277E-6	-43.905123
1.527745E-6	-43.877461
1.52779E-6	-43.821613
1.527835E-6	-43.775787
1.52788E-6	-43.665315
1.527925E-6	-43.589227
1.52797E-6	-43.560541
1.528015E-6	-43.532043
1.52806E-6	-43.522259
1.528105E-6	-43.519329
1.52815E-6	-43.501785
1.528195E-6	-43.49207
1.52824E-6	-43.578324
1.528285E-6	-43.622102
1.52833E-6	-43.645163
1.528375E-6	-43.598168
1.52842E-6	-43.594192
1.528465E-6	-43.569423
1.52851E-6	-43.567448
1.528555E-6	-43.557584
1.5286E-6	-43.503731
1.528645E-6	-43.375255
1.52869E-6	-43.338566
1.528735E-6	-43.285494
1.52878E-6	-43.302184
1.528825E-6	-43.297541
1.52887E-6	-43.281794
1.528915E-6	-43.269791
1.52896E-6	-43.279946
1.529005E-6	-43.34419
1.52905E-6	-43.448616
1.529095E-6	-43.488189
1.52914E-6	-43.488189
1.529185E-6	-43.480439
1.52923E-6	-43.457272
1.529275E-6	-43.450538
1.52932E-6	-43.479472
1.529365E-6	-43.427529
1.52941E-6	-43.335756
1.529455E-6	-43.25966
1.5295E-6	-43.207539
1.529545E-6	-43.209357
1.52959E-6	-43.20663
1.529635E-6	-43.20663
1.52968E-6	-43.205721
1.529725E-6	-43.225756
1.52977E-6	-43.262421
1.529815E-6	-43.36959
1.52986E-6	-43.440936
1.529905E-6	-43.451499
1.52995E-6	-43.456309
1.529995E-6	-43.453422
1.53004E-6	-43.452461
1.530085E-6	-43.46884
1.53013E-6	-43.447655
1.530175E-6	-43.342314
1.53022E-6	-43.302184
1.530265E-6	-43.227582
1.53031E-6	-43.242217
1.530355E-6	-43.242217
1.5304E-6	-43.249553
1.530445E-6	-43.20663
1.53049E-6	-43.233064
1.530535E-6	-43.307761
1.53058E-6	-43.393242
1.530625E-6	-43.474636
1.53067E-6	-43.502758
1.530715E-6	-43.506651
1.53076E-6	-43.508599
1.530805E-6	-43.534982
1.53085E-6	-43.527149
1.530895E-6	-43.525192
1.53094E-6	-43.474636
1.530985E-6	-43.372422
1.53103E-6	-43.317073
1.531075E-6	-43.302184
1.53112E-6	-43.321736
1.531165E-6	-43.313346
1.53121E-6	-43.324537
1.531255E-6	-43.323603
1.5313E-6	-43.35358
1.531345E-6	-43.470771
1.53139E-6	-43.557584
1.531435E-6	-43.605135
1.53148E-6	-43.646168
1.531525E-6	-43.653212
1.53157E-6	-43.658251
1.531615E-6	-43.669357
1.53166E-6	-43.664306
1.531705E-6	-43.651199
1.53175E-6	-43.56646
1.531795E-6	-43.498868
1.53184E-6	-43.49984
1.531885E-6	-43.489159
1.53193E-6	-43.501785
1.531975E-6	-43.539886
1.53202E-6	-43.534982
1.532065E-6	-43.567448
1.53211E-6	-43.644157
1.532155E-6	-43.726341
1.5322E-6	-43.813245
1.532245E-6	-43.840499
1.53229E-6	-43.885954
1.532335E-6	-43.900856
1.53238E-6	-43.922234
1.532425E-6	-43.936186
1.53247E-6	-43.92545
1.532515E-6	-43.881705
1.53256E-6	-43.799681
1.532605E-6	-43.761307
1.53265E-6	-43.783045
1.532695E-6	-43.761307
1.53274E-6	-43.802807
1.532785E-6	-43.828948
1.53283E-6	-43.862639
1.532875E-6	-43.91474
1.53292E-6	-44.024145
1.532965E-6	-44.130753
1.53301E-6	-44.202164
1.533055E-6	-44.212462
1.5331E-6	-44.259687
1.533145E-6	-44.277094
1.53319E-6	-44.29107
1.533235E-6	-44.292236
1.53328E-6	-44.268962
1.533325E-6	-44.223933
1.53337E-6	-44.165745
1.533415E-6	-44.152166
1.53346E-6	-44.170281
1.533505E-6	-44.182778
1.53355E-6	-44.205594
1.533595E-6	-44.264322
1.53364E-6	-44.306261
1.533685E-6	-44.393761
1.53373E-6	-44.507514
1.533775E-6	-44.596705
1.53382E-6	-44.6572
1.533865E-6	-44.687766
1.53391E-6	-44.691602
1.533955E-6	-44.744369
1.534E-6	-44.754741
1.534045E-6	-44.74178
1.53409E-6	-44.717262
1.534135E-6	-44.667365
1.53418E-6	-44.638205
1.534225E-6	-44.658469
1.53427E-6	-44.643262
1.534315E-6	-44.709548
1.53436E-6	-44.748256
1.534405E-6	-44.776862
1.53445E-6	-44.843911
1.534495E-6	-44.949858
1.53454E-6	-45.065419
1.534585E-6	-45.131446
1.53463E-6	-45.155578
1.534675E-6	-45.192746
1.53472E-6	-45.228787
1.534765E-6	-45.244741
1.53481E-6	-45.292956
1.534855E-6	-45.285616
1.5349E-6	-45.198493
1.534945E-6	-45.154155
1.53499E-6	-45.148467
1.535035E-6	-45.154155
1.53508E-6	-45.202808
1.535125E-6	-45.234582
1.53517E-6	-45.272436
1.535215E-6	-45.334289
1.53526E-6	-45.404567
1.535305E-6	-45.531523
1.53535E-6	-45.636783
1.535395E-6	-45.683147
1.53544E-6	-45.712175
1.535485E-6	-45.728386
1.53553E-6	-45.736514
1.535575E-6	-45.775743
1.53562E-6	-45.775743
1.535665E-6	-45.744658
1.53571E-6	-45.655908
1.535755E-6	-45.633604
1.5358E-6	-45.636783
1.535845E-6	-45.676722
1.53589E-6	-45.715412
1.535935E-6	-45.725139
1.53598E-6	-45.751184
1.536025E-6	-45.805399
1.53607E-6	-45.941416
1.536115E-6	-46.027554
1.53616E-6	-46.115435
1.536205E-6	-46.115435
1.53625E-6	-46.138579
1.536295E-6	-46.151092
1.53634E-6	-46.187044
1.536385E-6	-46.187044
1.53643E-6	-46.161846
1.536475E-6	-46.081831
1.53652E-6	-46.015392
1.536565E-6	-46.032777
1.53661E-6	-46.048484
1.536655E-6	-46.043242
1.5367E-6	-46.080069
1.536745E-6	-46.078309
1.53679E-6	-46.124322
1.536835E-6	-46.230582
1.53688E-6	-46.34512
1.536925E-6	-46.418747
1.53697E-6	-46.435917
1.537015E-6	-46.443569
1.53706E-6	-46.447401
1.537105E-6	-46.476245
1.53715E-6	-46.49752
1.537195E-6	-46.489771
1.53724E-6	-46.38839
1.537285E-6	-46.302277
1.53733E-6	-46.278247
1.537375E-6	-46.281935
1.53742E-6	-46.283781
1.537465E-6	-46.311555
1.53751E-6	-46.298572
1.537555E-6	-46.300424
1.5376E-6	-46.34512
1.537645E-6	-46.485902
1.53769E-6	-46.601512
1.537735E-6	-46.623411
1.53778E-6	-46.629403
1.537825E-6	-46.643415
1.53787E-6	-46.659486
1.537915E-6	-46.665527
1.53796E-6	-46.661499
1.538005E-6	-46.589614
1.53805E-6	-46.499459
1.538095E-6	-46.409238
1.53814E-6	-46.414941
1.538185E-6	-46.399749
1.53823E-6	-46.399749
1.538275E-6	-46.399749
1.53832E-6	-46.409238
1.538365E-6	-46.418747
1.53841E-6	-46.528652
1.538455E-6	-46.629403
1.5385E-6	-46.679657
1.538545E-6	-46.722325
1.53859E-6	-46.701955
1.538635E-6	-46.7305
1.53868E-6	-46.736641
1.538725E-6	-46.732546
1.53877E-6	-46.697892
1.538815E-6	-46.613443
1.53886E-6	-46.501399
1.538905E-6	-46.458916
1.53895E-6	-46.432095
1.538995E-6	-46.428277
1.53904E-6	-46.416844
1.539085E-6	-46.409238
1.53913E-6	-46.434006
1.539175E-6	-46.476245
1.53922E-6	-46.601512
1.539265E-6	-46.68168
1.53931E-6	-46.706021
1.539355E-6	-46.689778
1.5394E-6	-46.724367
1.539445E-6	-46.710091
1.53949E-6	-46.708056
1.539535E-6	-46.697892
1.53958E-6	-46.631402
1.539625E-6	-46.530605
1.53967E-6	-46.424463
1.539715E-6	-46.414941
1.53976E-6	-46.382722
1.539805E-6	-46.382722
1.53985E-6	-46.378947
1.539895E-6	-46.375175
1.53994E-6	-46.407338
1.539985E-6	-46.468535
1.54003E-6	-46.583677
1.540075E-6	-46.645421
1.54012E-6	-46.645421
1.540165E-6	-46.661499
1.54021E-6	-46.66956
1.540255E-6	-46.663512
1.5403E-6	-46.665527
1.540345E-6	-46.607474
1.54039E-6	-46.515004
1.540435E-6	-46.394066
1.54048E-6	-46.33017
1.540525E-6	-46.317131
1.54057E-6	-46.309698
1.540615E-6	-46.29672
1.54066E-6	-46.293019
1.540705E-6	-46.311555
1.54075E-6	-46.348866
1.540795E-6	-46.422557
1.54084E-6	-46.5267
1.540885E-6	-46.577748
1.54093E-6	-46.575773
1.540975E-6	-46.585655
1.54102E-6	-46.575773
1.541065E-6	-46.554113
1.54111E-6	-46.546263
1.541155E-6	-46.505282
1.5412E-6	-46.390281
1.541245E-6	-46.29672
1.54129E-6	-46.22876
1.541335E-6	-46.192462
1.54138E-6	-46.192462
1.541425E-6	-46.205132
1.54147E-6	-46.192462
1.541515E-6	-46.210573
1.54156E-6	-46.27088
1.541605E-6	-46.380834
1.54165E-6	-46.478175
1.541695E-6	-46.495581
1.54174E-6	-46.509168
1.541785E-6	-46.505282
1.54183E-6	-46.470461
1.541875E-6	-46.474316
1.54192E-6	-46.458916
1.541965E-6	-46.367642
1.54201E-6	-46.250684
1.542055E-6	-46.151092
1.5421E-6	-46.129663
1.542145E-6	-46.124322
1.54219E-6	-46.120765
1.542235E-6	-46.11366
1.54228E-6	-46.117211
1.542325E-6	-46.151092
1.54237E-6	-46.22876
1.542415E-6	-46.34512
1.54246E-6	-46.399749
1.542505E-6	-46.458916
1.54255E-6	-46.430186
1.542595E-6	-46.416844
1.54264E-6	-46.403542
1.542685E-6	-46.416844
1.54273E-6	-46.369524
1.542775E-6	-46.263525
1.54282E-6	-46.149302
1.542865E-6	-46.088884
1.54291E-6	-46.058987
1.542955E-6	-46.078309
1.543E-6	-46.071273
1.543045E-6	-46.074789
1.54309E-6	-46.071273
1.543135E-6	-46.106567
1.54318E-6	-46.23423
1.543225E-6	-46.341378
1.54327E-6	-46.403542
1.543315E-6	-46.413039
1.54336E-6	-46.395959
1.543405E-6	-46.403542
1.54345E-6	-46.390281
1.543495E-6	-46.38839
1.54354E-6	-46.333903
1.543585E-6	-46.192462
1.54363E-6	-46.092415
1.543675E-6	-46.055483
1.54372E-6	-46.050233
1.543765E-6	-46.055483
1.54381E-6	-46.064248
1.543855E-6	-46.046736
1.5439E-6	-46.074789
1.543945E-6	-46.147513
1.54399E-6	-46.26904
1.544035E-6	-46.392173
1.54408E-6	-46.399749
1.544125E-6	-46.390281
1.54417E-6	-46.397854
1.544215E-6	-46.397854
1.54426E-6	-46.395959
1.544305E-6	-46.397854
1.54435E-6	-46.304131
1.544395E-6	-46.163641
1.54444E-6	-46.085356
1.544485E-6	-46.076548
1.54453E-6	-46.081831
1.544575E-6	-46.07303
1.54462E-6	-46.076548
1.544665E-6	-46.076548
1.54471E-6	-46.095948
1.544755E-6	-46.225116
1.5448E-6	-46.360122
1.544845E-6	-46.413039
1.54489E-6	-46.42637
1.544935E-6	-46.418747
1.54498E-6	-46.414941
1.545025E-6	-46.36388
1.54507E-6	-45.965363
1.545115E-6	-40.692037
1.54516E-6	-30.268721
1.545205E-6	-24.881166
1.54525E-6	-22.706732
1.545295E-6	-22.197547
1.54534E-6	-22.148838
1.545385E-6	-22.123979
1.54543E-6	-22.128939
1.545475E-6	-22.514244
1.54552E-6	-24.532106
1.545565E-6	-29.419538
1.54561E-6	-38.449678
1.545655E-6	-44.599209
1.5457E-6	-46.101254
1.545745E-6	-46.394066
1.54579E-6	-46.464684
1.545835E-6	-46.478175
1.54588E-6	-46.487837
1.545925E-6	-46.434006
1.54597E-6	-46.313413
1.546015E-6	-46.206945
1.54606E-6	-46.170829
1.546105E-6	-46.156466
1.54615E-6	-46.163641
1.546195E-6	-46.154674
1.54624E-6	-46.158259
1.546285E-6	-46.17983
1.54633E-6	-46.259853
1.546375E-6	-46.38839
1.54642E-6	-46.483969
1.546465E-6	-46.516951
1.54651E-6	-46.534514
1.546555E-6	-46.548224
1.5466E-6	-46.552149
1.546645E-6	-46.560009
1.54669E-6	-46.534514
1.546735E-6	-46.468535
1.54678E-6	-46.332036
1.546825E-6	-46.254349
1.54687E-6	-46.225116
1.546915E-6	-46.223296
1.54696E-6	-46.216021
1.547005E-6	-46.205132
1.54705E-6	-46.22876
1.547095E-6	-46.263525
1.54714E-6	-46.348866
1.547185E-6	-46.474316
1.54723E-6	-46.571827
1.547275E-6	-46.595559
1.54732E-6	-46.599527
1.547365E-6	-46.607474
1.54741E-6	-46.611453
1.547455E-6	-46.603498
1.5475E-6	-46.571827
1.547545E-6	-46.480105
1.54759E-6	-46.365761
1.547635E-6	-46.278247
1.54768E-6	-46.27088
1.547725E-6	-46.265363
1.54777E-6	-46.265363
1.547815E-6	-46.278247
1.54786E-6	-46.287474
1.547905E-6	-46.332036
1.54795E-6	-46.434006
1.547995E-6	-46.552149
1.54804E-6	-46.635403
1.548085E-6	-46.653452
1.54813E-6	-46.677636
1.548175E-6	-46.675615
1.54822E-6	-46.661499
1.548265E-6	-46.655462
1.54831E-6	-46.631402
1.548355E-6	-46.522798
1.5484E-6	-46.399749
1.548445E-6	-46.333903
1.54849E-6	-46.307841
1.548535E-6	-46.305986
1.54858E-6	-46.320853
1.548625E-6	-46.33017
1.54867E-6	-46.333903
1.548715E-6	-46.375175
1.54876E-6	-46.50334
1.548805E-6	-46.619421
1.54885E-6	-46.689778
1.548895E-6	-46.706021
1.54894E-6	-46.708056
1.548985E-6	-46.714166
1.54903E-6	-46.703988
1.549075E-6	-46.693833
1.54912E-6	-46.659486
1.549165E-6	-46.544302
1.54921E-6	-46.411138
1.549255E-6	-46.343249
1.5493E-6	-46.33017
1.549345E-6	-46.332036
1.54939E-6	-46.356366
1.549435E-6	-46.35449
1.54948E-6	-46.365761
1.549525E-6	-46.424463
1.54957E-6	-46.546263
1.549615E-6	-46.667543
1.54966E-6	-46.718243
1.549705E-6	-46.734593
1.54975E-6	-46.716204
1.549795E-6	-46.685727
1.54984E-6	-46.538427
1.549885E-6	-45.581478
1.54993E-6	-35.568935
1.549975E-6	-26.912222
1.55002E-6	-23.29847
1.550065E-6	-22.169544
1.55011E-6	-21.968844
1.550155E-6	-21.932775
1.5502E-6	-21.913165
1.550245E-6	-21.983905
1.55029E-6	-22.767907
1.550335E-6	-25.605094
1.55038E-6	-32.032176
1.550425E-6	-41.486193
1.55047E-6	-45.643149
1.550515E-6	-46.511113
1.55056E-6	-46.661499
1.550605E-6	-46.703988
1.55065E-6	-46.714166
1.550695E-6	-46.714166
1.55074E-6	-46.629403
1.550785E-6	-46.478175
1.55083E-6	-46.377061
1.550875E-6	-46.332036
1.55092E-6	-46.33017
1.550965E-6	-46.34512
1.55101E-6	-46.348866
1.551055E-6	-46.337639
1.5511E-6	-46.341378
1.551145E-6	-46.449318
1.55119E-6	-46.611453
1.551235E-6	-46.703988
1.55128E-6	-46.726411
1.551325E-6	-46.724367
1.55137E-6	-46.712128
1.551415E-6	-46.710091
1.55146E-6	-46.716204
1.551505E-6	-46.699923
1.55155E-6	-46.581699
1.551595E-6	-46.432095
1.55164E-6	-46.326441
1.551685E-6	-46.317131
1.55173E-6	-46.313413
1.551775E-6	-46.311555
1.55182E-6	-46.304131
1.551865E-6	-46.294869
1.55191E-6	-46.324577
1.551955E-6	-46.443569
1.552E-6	-46.617428
1.552045E-6	-46.689778
1.55209E-6	-46.708056
1.552135E-6	-46.699923
1.55218E-6	-46.703988
1.552225E-6	-46.708056
1.55227E-6	-46.710091
1.552315E-6	-46.663512
1.55236E-6	-46.53647
1.552405E-6	-46.373291
1.55245E-6	-46.293019
1.552495E-6	-46.285627
1.55254E-6	-46.285627
1.552585E-6	-46.283781
1.55263E-6	-46.280091
1.552675E-6	-46.272721
1.55272E-6	-46.324577
1.552765E-6	-46.466609
1.55281E-6	-46.607474
1.552855E-6	-46.677636
1.5529E-6	-46.68168
1.552945E-6	-46.679657
1.55299E-6	-46.673596
1.553035E-6	-46.685727
1.55308E-6	-46.665527
1.553125E-6	-46.619421
1.55317E-6	-46.470461
1.553215E-6	-46.333903
1.55326E-6	-46.272721
1.553305E-6	-46.256183
1.55335E-6	-46.248853
1.553395E-6	-46.230582
1.55344E-6	-46.232406
1.553485E-6	-46.230582
1.55353E-6	-46.305986
1.553575E-6	-46.443569
1.55362E-6	-46.595559
1.553665E-6	-46.653452
1.55371E-6	-46.653452
1.553755E-6	-46.663512
1.5538E-6	-46.667543
1.553845E-6	-46.665527
1.55389E-6	-46.653452
1.553935E-6	-46.575773
1.55398E-6	-46.432095
1.554025E-6	-46.293019
1.55407E-6	-46.239708
1.554115E-6	-46.221476
1.55416E-6	-46.219657
1.554205E-6	-46.205132
1.55425E-6	-46.20332
1.554295E-6	-46.219657
1.55434E-6	-46.298572
1.554385E-6	-46.447401
1.55443E-6	-46.571827
1.554475E-6	-46.637404
1.55452E-6	-46.647427
1.554565E-6	-46.661499
1.55461E-6	-46.653452
1.554655E-6	-46.645421
1.5547E-6	-46.623411
1.554745E-6	-46.546263
1.55479E-6	-46.399749
1.554835E-6	-46.252517
1.55488E-6	-46.20332
1.554925E-6	-46.185239
1.55497E-6	-46.17983
1.555015E-6	-46.161846
1.55506E-6	-46.172627
1.555105E-6	-46.199698
1.55515E-6	-46.26904
1.555195E-6	-46.432095
1.55524E-6	-46.561977
1.555285E-6	-46.611453
1.55533E-6	-46.629403
1.555375E-6	-46.637404
1.55542E-6	-46.635403
1.555465E-6	-46.619421
1.55551E-6	-46.603498
1.555555E-6	-46.538427
1.5556E-6	-46.367642
1.555645E-6	-46.22876
1.55569E-6	-46.178028
1.555735E-6	-46.169031
1.55578E-6	-46.163641
1.555825E-6	-46.160052
1.55587E-6	-46.165437
1.555915E-6	-46.187044
1.55596E-6	-46.263525
1.556005E-6	-46.428277
1.55605E-6	-46.571827
1.556095E-6	-46.623411
1.55614E-6	-46.641411
1.556185E-6	-46.637404
1.55623E-6	-46.637404
1.556275E-6	-46.631402
1.55632E-6	-46.613443
1.556365E-6	-46.538427
1.55641E-6	-46.371407
1.556455E-6	-46.221476
1.5565E-6	-46.172627
1.556545E-6	-46.165437
1.55659E-6	-46.160052
1.556635E-6	-46.169031
1.55668E-6	-46.183435
1.556725E-6	-46.181632
1.55677E-6	-46.274562
1.556815E-6	-46.449318
1.55686E-6	-46.593576
1.556905E-6	-46.649435
1.55695E-6	-46.66956
1.556995E-6	-46.665527
1.55704E-6	-46.663512
1.557085E-6	-46.653452
1.55713E-6	-46.649435
1.557175E-6	-46.575773
1.55722E-6	-46.394066
1.557265E-6	-46.254349
1.55731E-6	-46.20332
1.557355E-6	-46.205132
1.5574E-6	-46.216021
1.557445E-6	-46.219657
1.55749E-6	-46.223296
1.557535E-6	-46.23423
1.55758E-6	-46.337639
1.557625E-6	-46.522798
1.55767E-6	-46.659486
1.557715E-6	-46.716204
1.55776E-6	-46.732546
1.557805E-6	-46.726411
1.55785E-6	-46.724367
1.557895E-6	-46.728455
1.55794E-6	-46.720284
1.557985E-6	-46.635403
1.55803E-6	-46.460838
1.558075E-6	-46.317131
1.55812E-6	-46.26904
1.558165E-6	-46.278247
1.55821E-6	-46.29117
1.558255E-6	-46.287474
1.5583E-6	-46.302277
1.558345E-6	-46.317131
1.55839E-6	-46.416844
1.558435E-6	-46.609463
1.55848E-6	-46.763355
1.558525E-6	-46.817279
1.55857E-6	-46.821455
1.558615E-6	-46.808939
1.55866E-6	-46.829819
1.558705E-6	-46.844495
1.55875E-6	-46.829819
1.558795E-6	-46.736641
1.55884E-6	-46.560009
1.558885E-6	-46.439741
1.55893E-6	-46.414941
1.558975E-6	-46.416844
1.55902E-6	-46.437829
1.559065E-6	-46.437829
1.55911E-6	-46.439741
1.559155E-6	-46.451236
1.5592E-6	-46.575773
1.559245E-6	-46.767479
1.55929E-6	-46.91009
1.559335E-6	-46.957249
1.55938E-6	-46.970201
1.559425E-6	-46.978856
1.55947E-6	-46.998395
1.559515E-6	-47.007107
1.55956E-6	-47.000571
1.559605E-6	-46.914356
1.55965E-6	-46.751005
1.559695E-6	-46.621416
1.55974E-6	-46.593576
1.559785E-6	-46.607474
1.55983E-6	-46.613443
1.559875E-6	-46.623411
1.55992E-6	-46.621416
1.559965E-6	-46.663512
1.56001E-6	-46.78816
1.560055E-6	-46.972363
1.5601E-6	-47.10634
1.560145E-6	-47.14893
1.56019E-6	-47.173779
1.560235E-6	-47.185121
1.56028E-6	-47.203331
1.560325E-6	-47.221617
1.56037E-6	-47.21475
1.560415E-6	-47.13319
1.56046E-6	-46.976691
1.560505E-6	-46.848697
1.56055E-6	-46.827727
1.560595E-6	-46.836102
1.56064E-6	-46.838199
1.560685E-6	-46.844495
1.56073E-6	-46.850799
1.560775E-6	-46.893067
1.56082E-6	-47.013652
1.560865E-6	-47.196493
1.56091E-6	-47.328283
1.560955E-6	-47.380238
1.561E-6	-47.404061
1.561045E-6	-47.420815
1.56109E-6	-47.442452
1.561135E-6	-47.464197
1.56118E-6	-47.444863
1.561225E-6	-47.373117
1.56127E-6	-47.221617
1.561315E-6	-47.119745
1.56136E-6	-47.095202
1.561405E-6	-47.088532
1.56145E-6	-47.097427
1.561495E-6	-47.113037
1.56154E-6	-47.128704
1.561585E-6	-47.164726
1.56163E-6	-47.267672
1.561675E-6	-47.440043
1.56172E-6	-47.579558
1.561765E-6	-47.639669
1.56181E-6	-47.672579
1.561855E-6	-47.692957
1.5619E-6	-47.705742
1.561945E-6	-47.71343
1.56199E-6	-47.723704
1.562035E-6	-47.649768
1.56208E-6	-47.525177
1.562125E-6	-47.413627
1.56217E-6	-47.363639
1.562215E-6	-47.377863
1.56226E-6	-47.380238
1.562305E-6	-47.387371
1.56235E-6	-47.416022
1.562395E-6	-47.440043
1.56244E-6	-47.535014
1.562485E-6	-47.695511
1.56253E-6	-47.846268
1.562575E-6	-47.918275
1.56262E-6	-47.953375
1.562665E-6	-47.977842
1.56271E-6	-47.999707
1.562755E-6	-48.016179
1.5628E-6	-48.007935
1.562845E-6	-47.964232
1.56289E-6	-47.840982
1.562935E-6	-47.728849
1.56298E-6	-47.6675
1.563025E-6	-47.685304
1.56307E-6	-47.687854
1.563115E-6	-47.710866
1.56316E-6	-47.734001
1.563205E-6	-47.770236
1.56325E-6	-47.85421
1.563295E-6	-47.996968
1.56334E-6	-48.150248
1.563385E-6	-48.227522
1.56343E-6	-48.273971
