Wavelength (nm)	Power (dBm)
1.525E-6	-46.639407
1.525045E-6	-46.546263
1.52509E-6	-46.443569
1.525135E-6	-46.339508
1.52518E-6	-46.232406
1.525225E-6	-46.126102
1.52527E-6	-46.039751
1.525315E-6	-45.944829
1.52536E-6	-45.853609
1.525405E-6	-45.759355
1.52545E-6	-45.668705
1.525495E-6	-45.578339
1.52554E-6	-45.479068
1.525585E-6	-45.401554
1.52563E-6	-45.307673
1.525675E-6	-45.224447
1.52572E-6	-45.137112
1.525765E-6	-45.057062
1.52581E-6	-44.992148
1.525855E-6	-44.92684
1.5259E-6	-44.835969
1.525945E-6	-44.763836
1.52599E-6	-44.708264
1.526035E-6	-44.625587
1.52608E-6	-44.564286
1.526125E-6	-44.503838
1.52617E-6	-44.430947
1.526215E-6	-44.329736
1.52626E-6	-44.288737
1.526305E-6	-44.207882
1.52635E-6	-44.144265
1.526395E-6	-44.066032
1.52644E-6	-43.988095
1.526485E-6	-43.943718
1.52653E-6	-43.896593
1.526575E-6	-43.838397
1.52662E-6	-43.782008
1.526665E-6	-43.73557
1.52671E-6	-43.683533
1.526755E-6	-43.644157
1.5268E-6	-43.608124
1.526845E-6	-43.555614
1.52689E-6	-43.497896
1.526935E-6	-43.446694
1.52698E-6	-43.410352
1.527025E-6	-43.35452
1.52707E-6	-43.288272
1.527115E-6	-43.248635
1.52716E-6	-43.192114
1.527205E-6	-43.138108
1.52725E-6	-43.099812
1.527295E-6	-43.069769
1.52734E-6	-43.042557
1.527385E-6	-42.989504
1.52743E-6	-42.956779
1.527475E-6	-42.967086
1.52752E-6	-42.929411
1.527565E-6	-42.916641
1.52761E-6	-42.868456
1.527655E-6	-42.843309
1.5277E-6	-42.799234
1.527745E-6	-42.788492
1.52779E-6	-42.762161
1.527835E-6	-42.716462
1.52788E-6	-42.679281
1.527925E-6	-42.618539
1.52797E-6	-42.616159
1.528015E-6	-42.580609
1.52806E-6	-42.550815
1.528105E-6	-42.54769
1.52815E-6	-42.517344
1.528195E-6	-42.498003
1.52824E-6	-42.507276
1.528285E-6	-42.517344
1.52833E-6	-42.513469
1.528375E-6	-42.485669
1.52842E-6	-42.466468
1.528465E-6	-42.446588
1.52851E-6	-42.429838
1.528555E-6	-42.44049
1.5286E-6	-42.398038
1.528645E-6	-42.366469
1.52869E-6	-42.31732
1.528735E-6	-42.302535
1.52878E-6	-42.30475
1.528825E-6	-42.299584
1.52887E-6	-42.275316
1.528915E-6	-42.2541
1.52896E-6	-42.251182
1.529005E-6	-42.270185
1.52905E-6	-42.292216
1.529095E-6	-42.296636
1.52914E-6	-42.305488
1.529185E-6	-42.270918
1.52923E-6	-42.270185
1.529275E-6	-42.261404
1.52932E-6	-42.262867
1.529365E-6	-42.241712
1.52941E-6	-42.198988
1.529455E-6	-42.182446
1.5295E-6	-42.165252
1.529545E-6	-42.165967
1.52959E-6	-42.168829
1.529635E-6	-42.161679
1.52968E-6	-42.153827
1.529725E-6	-42.152401
1.52977E-6	-42.173841
1.529815E-6	-42.210533
1.52986E-6	-42.210533
1.529905E-6	-42.209088
1.52995E-6	-42.202592
1.529995E-6	-42.204757
1.53004E-6	-42.225007
1.530085E-6	-42.207644
1.53013E-6	-42.205478
1.530175E-6	-42.17599
1.53022E-6	-42.163108
1.530265E-6	-42.127521
1.53031E-6	-42.136035
1.530355E-6	-42.152401
1.5304E-6	-42.146702
1.530445E-6	-42.139588
1.53049E-6	-42.131776
1.530535E-6	-42.17026
1.53058E-6	-42.204757
1.530625E-6	-42.227182
1.53067E-6	-42.222108
1.530715E-6	-42.229358
1.53076E-6	-42.243168
1.530805E-6	-42.248266
1.53085E-6	-42.259212
1.530895E-6	-42.27385
1.53094E-6	-42.252641
1.530985E-6	-42.227182
1.53103E-6	-42.222108
1.531075E-6	-42.233714
1.53112E-6	-42.236621
1.531165E-6	-42.232262
1.53121E-6	-42.234441
1.531255E-6	-42.235167
1.5313E-6	-42.265793
1.531345E-6	-42.314359
1.53139E-6	-42.346295
1.531435E-6	-42.358239
1.53148E-6	-42.362726
1.531525E-6	-42.4071
1.53157E-6	-42.406344
1.531615E-6	-42.426799
1.53166E-6	-42.430598
1.531705E-6	-42.413909
1.53175E-6	-42.402566
1.531795E-6	-42.403322
1.53184E-6	-42.422245
1.531885E-6	-42.441251
1.53193E-6	-42.445063
1.531975E-6	-42.448877
1.53202E-6	-42.479516
1.532065E-6	-42.502637
1.53211E-6	-42.54769
1.532155E-6	-42.581396
1.5322E-6	-42.621715
1.532245E-6	-42.640021
1.53229E-6	-42.680086
1.532335E-6	-42.685724
1.53238E-6	-42.718086
1.532425E-6	-42.720523
1.53247E-6	-42.716462
1.532515E-6	-42.735173
1.53256E-6	-42.740884
1.532605E-6	-42.74415
1.53265E-6	-42.766264
1.532695E-6	-42.776952
1.53274E-6	-42.790968
1.532785E-6	-42.835793
1.53283E-6	-42.865935
1.532875E-6	-42.919192
1.53292E-6	-42.956779
1.532965E-6	-43.004224
1.53301E-6	-43.03731
1.533055E-6	-43.080349
1.5331E-6	-43.1078
1.533145E-6	-43.136319
1.53319E-6	-43.156934
1.533235E-6	-43.18397
1.53328E-6	-43.21846
1.533325E-6	-43.200273
1.53337E-6	-43.214816
1.533415E-6	-43.235808
1.53346E-6	-43.25874
1.533505E-6	-43.289198
1.53355E-6	-43.324537
1.533595E-6	-43.37431
1.53364E-6	-43.412257
1.533685E-6	-43.455347
1.53373E-6	-43.540867
1.533775E-6	-43.560541
1.53382E-6	-43.616106
1.533865E-6	-43.663296
1.53391E-6	-43.690639
1.533955E-6	-43.727366
1.534E-6	-43.752024
1.534045E-6	-43.776823
1.53409E-6	-43.808023
1.534135E-6	-43.832095
1.53418E-6	-43.842603
1.534225E-6	-43.854191
1.53427E-6	-43.885954
1.534315E-6	-43.935111
1.53436E-6	-43.978314
1.534405E-6	-44.011001
1.53445E-6	-44.041732
1.534495E-6	-44.109445
1.53454E-6	-44.19075
1.534585E-6	-44.248122
1.53463E-6	-44.29107
1.534675E-6	-44.317983
1.53472E-6	-44.362817
1.534765E-6	-44.40213
1.53481E-6	-44.446637
1.534855E-6	-44.46117
1.5349E-6	-44.472101
1.534945E-6	-44.472101
1.53499E-6	-44.496493
1.535035E-6	-44.537042
1.53508E-6	-44.571746
1.535125E-6	-44.636941
1.53517E-6	-44.668637
1.535215E-6	-44.699284
1.53526E-6	-44.769042
1.535305E-6	-44.842586
1.53535E-6	-44.895891
1.535395E-6	-44.952574
1.53544E-6	-44.981195
1.535485E-6	-45.018273
1.53553E-6	-45.047333
1.535575E-6	-45.082182
1.53562E-6	-45.118725
1.535665E-6	-45.110265
1.53571E-6	-45.113083
1.535755E-6	-45.147046
1.5358E-6	-45.161275
1.535845E-6	-45.204247
1.53589E-6	-45.249102
1.535935E-6	-45.275361
1.53598E-6	-45.303252
1.536025E-6	-45.359578
1.53607E-6	-45.427238
1.536115E-6	-45.491353
1.53616E-6	-45.533075
1.536205E-6	-45.562678
1.53625E-6	-45.590909
1.536295E-6	-45.617742
1.53634E-6	-45.660702
1.536385E-6	-45.704092
1.53643E-6	-45.697636
1.536475E-6	-45.67191
1.53652E-6	-45.665502
1.536565E-6	-45.691191
1.53661E-6	-45.734887
1.536655E-6	-45.759355
1.5367E-6	-45.788899
1.536745E-6	-45.807053
1.53679E-6	-45.830268
1.536835E-6	-45.893915
1.53688E-6	-45.956795
1.536925E-6	-46.015392
1.53697E-6	-46.0206
1.537015E-6	-46.053732
1.53706E-6	-46.081831
1.537105E-6	-46.103025
1.53715E-6	-46.127882
1.537195E-6	-46.140364
1.53724E-6	-46.118988
1.537285E-6	-46.07303
1.53733E-6	-46.101254
1.537375E-6	-46.110112
1.53742E-6	-46.133227
1.537465E-6	-46.154674
1.53751E-6	-46.149302
1.537555E-6	-46.170829
1.5376E-6	-46.217839
1.537645E-6	-46.265363
1.53769E-6	-46.320853
1.537735E-6	-46.35074
1.53778E-6	-46.33017
1.537825E-6	-46.360122
1.53787E-6	-46.378947
1.537915E-6	-46.418747
1.53796E-6	-46.399749
1.538005E-6	-46.369524
1.53805E-6	-46.337639
1.538095E-6	-46.328305
1.53814E-6	-46.322715
1.538185E-6	-46.328305
1.53823E-6	-46.332036
1.538275E-6	-46.326441
1.53832E-6	-46.341378
1.538365E-6	-46.365761
1.53841E-6	-46.414941
1.538455E-6	-46.460838
1.5385E-6	-46.483969
1.538545E-6	-46.49752
1.53859E-6	-46.49752
1.538635E-6	-46.511113
1.53868E-6	-46.513058
1.538725E-6	-46.520848
1.53877E-6	-46.501399
1.538815E-6	-46.445485
1.53886E-6	-46.411138
1.538905E-6	-46.40544
1.53895E-6	-46.399749
1.538995E-6	-46.390281
1.53904E-6	-46.395959
1.539085E-6	-46.377061
1.53913E-6	-46.395959
1.539175E-6	-46.414941
1.53922E-6	-46.468535
1.539265E-6	-46.509168
1.53931E-6	-46.522798
1.539355E-6	-46.522798
1.5394E-6	-46.522798
1.539445E-6	-46.530605
1.53949E-6	-46.5267
1.539535E-6	-46.505282
1.53958E-6	-46.456994
1.539625E-6	-46.399749
1.53967E-6	-46.392173
1.539715E-6	-46.373291
1.53976E-6	-46.358244
1.539805E-6	-46.352614
1.53985E-6	-46.333903
1.539895E-6	-46.339508
1.53994E-6	-46.367642
1.539985E-6	-46.3865
1.54003E-6	-46.424463
1.540075E-6	-46.447401
1.54012E-6	-46.449318
1.540165E-6	-46.445485
1.54021E-6	-46.449318
1.540255E-6	-46.437829
1.5403E-6	-46.42637
1.540345E-6	-46.401645
1.54039E-6	-46.35074
1.540435E-6	-46.324577
1.54048E-6	-46.283781
1.540525E-6	-46.259853
1.54057E-6	-46.259853
1.540615E-6	-46.236056
1.54066E-6	-46.225116
1.540705E-6	-46.247023
1.54075E-6	-46.256183
1.540795E-6	-46.293019
1.54084E-6	-46.317131
1.540885E-6	-46.332036
1.54093E-6	-46.346993
1.540975E-6	-46.339508
1.54102E-6	-46.324577
1.541065E-6	-46.313413
1.54111E-6	-46.287474
1.541155E-6	-46.263525
1.5412E-6	-46.22876
1.541245E-6	-46.181632
1.54129E-6	-46.14215
1.541335E-6	-46.120765
1.54138E-6	-46.11366
1.541425E-6	-46.117211
1.54147E-6	-46.115435
1.541515E-6	-46.115435
1.54156E-6	-46.133227
1.541605E-6	-46.181632
1.54165E-6	-46.217839
1.541695E-6	-46.230582
1.54174E-6	-46.221476
1.541785E-6	-46.217839
1.54183E-6	-46.190655
1.541875E-6	-46.178028
1.54192E-6	-46.178028
1.541965E-6	-46.136794
1.54201E-6	-46.092415
1.542055E-6	-46.031036
1.5421E-6	-46.001533
1.542145E-6	-46.001533
1.54219E-6	-46.008457
1.542235E-6	-46.013657
1.54228E-6	-45.998075
1.542325E-6	-46.001533
1.54237E-6	-46.039751
1.542415E-6	-46.081831
1.54246E-6	-46.115435
1.542505E-6	-46.126102
1.54255E-6	-46.108339
1.542595E-6	-46.095948
1.54264E-6	-46.095948
1.542685E-6	-46.092415
1.54273E-6	-46.080069
1.542775E-6	-46.036263
1.54282E-6	-45.973948
1.542865E-6	-45.932895
1.54291E-6	-45.932895
1.542955E-6	-45.931193
1.543E-6	-45.936302
1.543045E-6	-45.927791
1.54309E-6	-45.920995
1.543135E-6	-45.938006
1.54318E-6	-45.99462
1.543225E-6	-46.057235
1.54327E-6	-46.067759
1.543315E-6	-46.055483
1.54336E-6	-46.057235
1.543405E-6	-46.039751
1.54345E-6	-46.043242
1.543495E-6	-46.055483
1.54354E-6	-46.013657
1.543585E-6	-45.953373
1.54363E-6	-45.9176
1.543675E-6	-45.89729
1.54372E-6	-45.909126
1.543765E-6	-45.907433
1.54381E-6	-45.905741
1.543855E-6	-45.893915
1.5439E-6	-45.895602
1.543945E-6	-45.941416
1.54399E-6	-46.004993
1.544035E-6	-46.046736
1.54408E-6	-46.046736
1.544125E-6	-46.03452
1.54417E-6	-46.041496
1.544215E-6	-46.046736
1.54426E-6	-46.043242
1.544305E-6	-46.046736
1.54435E-6	-46.001533
1.544395E-6	-45.941416
1.54444E-6	-45.9176
1.544485E-6	-45.900669
1.54453E-6	-45.9176
1.544575E-6	-45.905741
1.54462E-6	-45.900669
1.544665E-6	-45.905741
1.54471E-6	-45.914209
1.544755E-6	-45.977386
1.5448E-6	-46.044989
1.544845E-6	-46.07303
1.54489E-6	-46.051982
1.544935E-6	-46.058987
1.54498E-6	-46.07303
1.545025E-6	-46.046736
1.54507E-6	-45.836924
1.545115E-6	-41.76265
1.54516E-6	-32.722961
1.545205E-6	-27.791078
1.54525E-6	-25.812017
1.545295E-6	-25.392525
1.54534E-6	-25.340226
1.545385E-6	-25.322439
1.54543E-6	-25.310622
1.545475E-6	-25.777385
1.54552E-6	-27.983298
1.545565E-6	-32.89375
1.54561E-6	-41.075158
1.545655E-6	-45.346171
1.5457E-6	-45.970512
1.545745E-6	-46.078309
1.54579E-6	-46.11366
1.545835E-6	-46.133227
1.54588E-6	-46.127882
1.545925E-6	-46.108339
1.54597E-6	-46.044989
1.546015E-6	-46.015392
1.54606E-6	-46.006725
1.546105E-6	-46.013657
1.54615E-6	-46.006725
1.546195E-6	-45.999804
1.54624E-6	-46.004993
1.546285E-6	-46.013657
1.54633E-6	-46.058987
1.546375E-6	-46.131445
1.54642E-6	-46.163641
1.546465E-6	-46.17983
1.54651E-6	-46.181632
1.546555E-6	-46.199698
1.5466E-6	-46.212388
1.546645E-6	-46.208759
1.54669E-6	-46.199698
1.546735E-6	-46.163641
1.54678E-6	-46.108339
1.546825E-6	-46.090649
1.54687E-6	-46.067759
1.546915E-6	-46.080069
1.54696E-6	-46.07303
1.547005E-6	-46.067759
1.54705E-6	-46.080069
1.547095E-6	-46.104795
1.54714E-6	-46.160052
1.547185E-6	-46.208759
1.54723E-6	-46.248853
1.547275E-6	-46.261689
1.54732E-6	-46.274562
1.547365E-6	-46.276404
1.54741E-6	-46.281935
1.547455E-6	-46.276404
1.5475E-6	-46.250684
1.547545E-6	-46.217839
1.54759E-6	-46.178028
1.547635E-6	-46.149302
1.54768E-6	-46.147513
1.547725E-6	-46.138579
1.54777E-6	-46.129663
1.547815E-6	-46.145725
1.54786E-6	-46.163641
1.547905E-6	-46.187044
1.54795E-6	-46.241536
1.547995E-6	-46.298572
1.54804E-6	-46.328305
1.548085E-6	-46.352614
1.54813E-6	-46.348866
1.548175E-6	-46.36388
1.54822E-6	-46.348866
1.548265E-6	-46.352614
1.54831E-6	-46.326441
1.548355E-6	-46.289321
1.5484E-6	-46.248853
1.548445E-6	-46.217839
1.54849E-6	-46.201508
1.548535E-6	-46.19427
1.54858E-6	-46.214204
1.548625E-6	-46.223296
1.54867E-6	-46.226937
1.548715E-6	-46.258017
1.54876E-6	-46.311555
1.548805E-6	-46.36388
1.54885E-6	-46.401645
1.548895E-6	-46.413039
1.54894E-6	-46.418747
1.548985E-6	-46.407338
1.54903E-6	-46.411138
1.549075E-6	-46.397854
1.54912E-6	-46.395959
1.549165E-6	-46.328305
1.54921E-6	-46.281935
1.549255E-6	-46.250684
1.5493E-6	-46.245193
1.549345E-6	-46.248853
1.54939E-6	-46.263525
1.549435E-6	-46.265363
1.54948E-6	-46.26904
1.549525E-6	-46.29672
1.54957E-6	-46.365761
1.549615E-6	-46.430186
1.54966E-6	-46.445485
1.549705E-6	-46.458916
1.54975E-6	-46.447401
1.549795E-6	-46.428277
1.54984E-6	-46.34512
1.549885E-6	-45.702477
1.54993E-6	-37.251497
1.549975E-6	-29.649707
1.55002E-6	-26.201508
1.550065E-6	-25.189876
1.55011E-6	-25.022413
1.550155E-6	-25.01276
1.5502E-6	-25.000381
1.550245E-6	-25.03901
1.55029E-6	-25.956795
1.550335E-6	-29.013563
1.55038E-6	-35.841923
1.550425E-6	-43.81429
1.55047E-6	-46.027554
1.550515E-6	-46.38461
1.55056E-6	-46.441655
1.550605E-6	-46.449318
1.55065E-6	-46.466609
1.550695E-6	-46.472388
1.55074E-6	-46.434006
1.550785E-6	-46.35449
1.55083E-6	-46.300424
1.550875E-6	-46.283781
1.55092E-6	-46.289321
1.550965E-6	-46.302277
1.55101E-6	-46.300424
1.551055E-6	-46.280091
1.5511E-6	-46.300424
1.551145E-6	-46.362001
1.55119E-6	-46.434006
1.551235E-6	-46.472388
1.55128E-6	-46.474316
1.551325E-6	-46.476245
1.55137E-6	-46.462761
1.551415E-6	-46.468535
1.55146E-6	-46.485902
1.551505E-6	-46.468535
1.55155E-6	-46.407338
1.551595E-6	-46.324577
1.55164E-6	-46.287474
1.551685E-6	-46.283781
1.55173E-6	-46.29117
1.551775E-6	-46.287474
1.55182E-6	-46.278247
1.551865E-6	-46.278247
1.55191E-6	-46.294869
1.551955E-6	-46.36388
1.552E-6	-46.430186
1.552045E-6	-46.476245
1.55209E-6	-46.468535
1.552135E-6	-46.470461
1.55218E-6	-46.468535
1.552225E-6	-46.474316
1.55227E-6	-46.476245
1.552315E-6	-46.449318
1.55236E-6	-46.382722
1.552405E-6	-46.29117
1.55245E-6	-46.265363
1.552495E-6	-46.263525
1.55254E-6	-46.283781
1.552585E-6	-46.27088
1.55263E-6	-46.254349
1.552675E-6	-46.256183
1.55272E-6	-46.287474
1.552765E-6	-46.356366
1.55281E-6	-46.434006
1.552855E-6	-46.455074
1.5529E-6	-46.453154
1.552945E-6	-46.455074
1.55299E-6	-46.462761
1.553035E-6	-46.468535
1.55308E-6	-46.455074
1.553125E-6	-46.422557
1.55317E-6	-46.35449
1.553215E-6	-46.287474
1.55326E-6	-46.261689
1.553305E-6	-46.259853
1.55335E-6	-46.243364
1.553395E-6	-46.23423
1.55344E-6	-46.22876
1.553485E-6	-46.23423
1.55353E-6	-46.287474
1.553575E-6	-46.356366
1.55362E-6	-46.416844
1.553665E-6	-46.445485
1.55371E-6	-46.439741
1.553755E-6	-46.447401
1.5538E-6	-46.453154
1.553845E-6	-46.445485
1.55389E-6	-46.437829
1.553935E-6	-46.397854
1.55398E-6	-46.322715
1.554025E-6	-46.272721
1.55407E-6	-46.245193
1.554115E-6	-46.236056
1.55416E-6	-46.221476
1.554205E-6	-46.219657
1.55425E-6	-46.219657
1.554295E-6	-46.241536
1.55434E-6	-46.263525
1.554385E-6	-46.35449
1.55443E-6	-46.409238
1.554475E-6	-46.420652
1.55452E-6	-46.437829
1.554565E-6	-46.445485
1.55461E-6	-46.451236
1.554655E-6	-46.437829
1.5547E-6	-46.428277
1.554745E-6	-46.377061
1.55479E-6	-46.313413
1.554835E-6	-46.247023
1.55488E-6	-46.216021
1.554925E-6	-46.210573
1.55497E-6	-46.190655
1.555015E-6	-46.199698
1.55506E-6	-46.217839
1.555105E-6	-46.225116
1.55515E-6	-46.265363
1.555195E-6	-46.332036
1.55524E-6	-46.399749
1.555285E-6	-46.413039
1.55533E-6	-46.439741
1.555375E-6	-46.435917
1.55542E-6	-46.434006
1.555465E-6	-46.428277
1.55551E-6	-46.416844
1.555555E-6	-46.38461
1.5556E-6	-46.302277
1.555645E-6	-46.243364
1.55569E-6	-46.217839
1.555735E-6	-46.205132
1.55578E-6	-46.20332
1.555825E-6	-46.210573
1.55587E-6	-46.217839
1.555915E-6	-46.226937
1.55596E-6	-46.263525
1.556005E-6	-46.339508
1.55605E-6	-46.414941
1.556095E-6	-46.447401
1.55614E-6	-46.447401
1.556185E-6	-46.455074
1.55623E-6	-46.445485
1.556275E-6	-46.439741
1.55632E-6	-46.434006
1.556365E-6	-46.40544
1.55641E-6	-46.324577
1.556455E-6	-46.248853
1.5565E-6	-46.226937
1.556545E-6	-46.212388
1.55659E-6	-46.22876
1.556635E-6	-46.232406
1.55668E-6	-46.239708
1.556725E-6	-46.245193
1.55677E-6	-46.29117
1.556815E-6	-46.377061
1.55686E-6	-46.447401
1.556905E-6	-46.480105
1.55695E-6	-46.491707
1.556995E-6	-46.489771
1.55704E-6	-46.482037
1.557085E-6	-46.480105
1.55713E-6	-46.495581
1.557175E-6	-46.468535
1.55722E-6	-46.369524
1.557265E-6	-46.294869
1.55731E-6	-46.274562
1.557355E-6	-46.274562
1.5574E-6	-46.294869
1.557445E-6	-46.304131
1.55749E-6	-46.300424
1.557535E-6	-46.315272
1.55758E-6	-46.36388
1.557625E-6	-46.472388
1.55767E-6	-46.546263
1.557715E-6	-46.575773
1.55776E-6	-46.569855
1.557805E-6	-46.575773
1.55785E-6	-46.575773
1.557895E-6	-46.587634
1.55794E-6	-46.593576
1.557985E-6	-46.550186
1.55803E-6	-46.460838
1.558075E-6	-46.392173
1.55812E-6	-46.377061
1.558165E-6	-46.38839
1.55821E-6	-46.401645
1.558255E-6	-46.420652
1.5583E-6	-46.40544
1.558345E-6	-46.424463
1.55839E-6	-46.485902
1.558435E-6	-46.591595
1.55848E-6	-46.679657
1.558525E-6	-46.703988
1.55857E-6	-46.703988
1.558615E-6	-46.708056
1.55866E-6	-46.720284
1.558705E-6	-46.74074
1.55875E-6	-46.742791
1.558795E-6	-46.697892
1.55884E-6	-46.607474
1.558885E-6	-46.546263
1.55893E-6	-46.542343
1.558975E-6	-46.554113
1.55902E-6	-46.5738
1.559065E-6	-46.5738
1.55911E-6	-46.579723
1.559155E-6	-46.597542
1.5592E-6	-46.665527
1.559245E-6	-46.781945
1.55929E-6	-46.855008
1.559335E-6	-46.888822
1.55938E-6	-46.893067
1.559425E-6	-46.91009
1.55947E-6	-46.931463
1.559515E-6	-46.950788
1.55956E-6	-46.948637
1.559605E-6	-46.897316
1.55965E-6	-46.811023
1.559695E-6	-46.757175
1.55974E-6	-46.773673
1.559785E-6	-46.78816
1.55983E-6	-46.800616
1.559875E-6	-46.790233
1.55992E-6	-46.811023
1.559965E-6	-46.840297
1.56001E-6	-46.918626
1.560055E-6	-47.028963
1.5601E-6	-47.113037
1.560145E-6	-47.135435
1.56019E-6	-47.151183
1.560235E-6	-47.16925
1.56028E-6	-47.185121
1.560325E-6	-47.205612
1.56037E-6	-47.207895
1.560415E-6	-47.173779
1.56046E-6	-47.077439
1.560505E-6	-47.035542
1.56055E-6	-47.039933
1.560595E-6	-47.055338
1.56064E-6	-47.070797
1.560685E-6	-47.079656
1.56073E-6	-47.095202
1.560775E-6	-47.13319
1.56082E-6	-47.212464
1.560865E-6	-47.32359
1.56091E-6	-47.394516
1.560955E-6	-47.420815
1.561E-6	-47.437635
1.561045E-6	-47.469044
1.56109E-6	-47.500682
1.561135E-6	-47.510464
1.56118E-6	-47.517814
1.561225E-6	-47.478754
1.56127E-6	-47.413627
1.561315E-6	-47.375489
1.56136E-6	-47.373117
1.561405E-6	-47.389752
1.56145E-6	-47.389752
1.561495E-6	-47.404061
1.56154E-6	-47.425614
1.561585E-6	-47.464197
1.56163E-6	-47.542406
1.561675E-6	-47.639669
1.56172E-6	-47.71343
1.561765E-6	-47.767637
1.56181E-6	-47.788467
1.561855E-6	-47.814645
1.5619E-6	-47.85421
1.561945E-6	-47.851562
1.56199E-6	-47.862167
1.562035E-6	-47.846268
1.56208E-6	-47.785858
1.562125E-6	-47.731424
1.56217E-6	-47.723704
1.562215E-6	-47.74174
1.56226E-6	-47.754669
1.562305E-6	-47.775437
1.56235E-6	-47.809397
1.562395E-6	-47.833064
1.56244E-6	-47.90217
1.562485E-6	-47.991495
1.56253E-6	-48.093882
1.562575E-6	-48.144578
1.56262E-6	-48.178708
1.562665E-6	-48.210231
1.56271E-6	-48.233301
1.562755E-6	-48.253588
1.5628E-6	-48.259402
1.562845E-6	-48.236193
1.56289E-6	-48.187282
1.562935E-6	-48.138916
1.56298E-6	-48.133261
1.563025E-6	-48.147412
1.56307E-6	-48.16161
1.563115E-6	-48.195874
1.56316E-6	-48.215987
1.563205E-6	-48.262312
1.56325E-6	-48.317973
1.563295E-6	-48.410347
1.56334E-6	-48.51089
1.563385E-6	-48.572978
1.56343E-6	-48.607508
1.563475E-6	-48.651856
