Wavelength (nm)	Power (dBm)
1.525E-6	-68.616973
1.525045E-6	-68.449678
1.52509E-6	-68.85389
1.525135E-6	-70.73709
1.52518E-6	-74.196453
1.525225E-6	-78.16161
1.52527E-6	-79.829667
1.525315E-6	-79.469216
1.52536E-6	-80.484682
1.525405E-6	-80.276583
1.52545E-6	-78.787685
1.525495E-6	-73.450538
1.52554E-6	-69.669786
1.525585E-6	-67.851562
1.52563E-6	-67.260732
1.525675E-6	-67.07301
1.52572E-6	-66.92504
1.525765E-6	-66.804776
1.52581E-6	-66.647427
1.525855E-6	-66.940041
1.5259E-6	-68.620133
1.525945E-6	-71.65961
1.52599E-6	-76.360122
1.526035E-6	-79.172146
1.52608E-6	-79.792245
1.526125E-6	-80.2512
1.52617E-6	-79.982663
1.526215E-6	-79.408154
1.52626E-6	-73.451499
1.526305E-6	-69.037854
1.52635E-6	-66.647427
1.526395E-6	-65.932895
1.52644E-6	-65.734887
1.526485E-6	-65.646335
1.52653E-6	-65.540846
1.526575E-6	-65.440898
1.52662E-6	-65.798792
1.526665E-6	-66.907958
1.52671E-6	-69.850597
1.526755E-6	-74.218194
1.5268E-6	-78.099486
1.526845E-6	-79.677843
1.52689E-6	-79.3968
1.526935E-6	-79.19013
1.52698E-6	-79.558524
1.527025E-6	-74.03953
1.52707E-6	-68.751699
1.527115E-6	-65.738142
1.52716E-6	-64.648325
1.527205E-6	-64.480623
1.52725E-6	-64.366376
1.527295E-6	-64.343883
1.52734E-6	-64.30392
1.527385E-6	-64.367563
1.52743E-6	-65.278289
1.527475E-6	-67.710866
1.52752E-6	-71.876884
1.527565E-6	-77.081873
1.52761E-6	-79.689957
1.527655E-6	-79.775716
1.5277E-6	-79.139963
1.527745E-6	-78.992849
1.52779E-6	-75.023794
1.527835E-6	-69.118639
1.52788E-6	-65.276825
1.527925E-6	-63.879583
1.52797E-6	-63.527149
1.528015E-6	-63.481407
1.52806E-6	-63.382819
1.528105E-6	-63.347005
1.52815E-6	-63.327339
1.528195E-6	-63.862639
1.52824E-6	-65.914209
1.528285E-6	-69.554602
1.52833E-6	-75.128616
1.528375E-6	-78.344589
1.52842E-6	-79.154237
1.528465E-6	-77.478754
1.52851E-6	-74.829361
1.528555E-6	-66.328305
1.5286E-6	-51.09579
1.528645E-6	-42.343314
1.52869E-6	-39.240882
1.528735E-6	-38.236193
1.52878E-6	-37.969671
1.528825E-6	-37.851562
1.52887E-6	-37.796304
1.528915E-6	-37.878124
1.52896E-6	-39.277501
1.529005E-6	-43.22393
1.52905E-6	-51.683861
1.529095E-6	-62.312879
1.52914E-6	-68.9279
1.529185E-6	-74.068247
1.52923E-6	-76.456994
1.529275E-6	-75.551748
1.52932E-6	-70.643416
1.529365E-6	-55.083582
1.52941E-6	-43.91367
1.529455E-6	-39.875846
1.5295E-6	-38.365404
1.529545E-6	-37.9588
1.52959E-6	-37.827793
1.529635E-6	-37.734001
1.52968E-6	-37.726276
1.529725E-6	-38.50473
1.52977E-6	-41.395422
1.529815E-6	-48.344589
1.52986E-6	-58.90759
1.529905E-6	-66.5267
1.52995E-6	-72.3905
1.529995E-6	-76.5267
1.53004E-6	-76.558043
1.530085E-6	-72.471836
1.53013E-6	-61.223408
1.530175E-6	-47.21475
1.53022E-6	-40.772745
1.530265E-6	-38.616973
1.53031E-6	-38.035475
1.530355E-6	-37.883456
1.5304E-6	-37.81202
1.530445E-6	-37.772835
1.53049E-6	-38.130437
1.530535E-6	-40.0975
1.53058E-6	-45.282683
1.530625E-6	-55.077985
1.53067E-6	-63.440936
1.530715E-6	-70.432555
1.53076E-6	-75.331324
1.530805E-6	-76.615435
1.53085E-6	-74.256214
1.530895E-6	-66.172627
1.53094E-6	-50.677292
1.530985E-6	-42.030789
1.53103E-6	-39.069287
1.531075E-6	-38.150248
1.53112E-6	-37.953375
1.531165E-6	-37.864822
1.53121E-6	-37.856861
1.531255E-6	-37.986029
1.5313E-6	-39.179331
1.531345E-6	-42.920893
1.53139E-6	-50.748943
1.531435E-6	-61.894315
1.53148E-6	-68.690233
1.531525E-6	-73.815335
1.53157E-6	-76.392173
1.531615E-6	-75.81533
1.53166E-6	-70.433034
1.531705E-6	-55.511392
1.53175E-6	-43.81429
1.531795E-6	-39.775716
1.53184E-6	-38.201611
1.531885E-6	-37.85421
1.53193E-6	-37.798919
1.531975E-6	-37.809397
1.53202E-6	-37.87546
1.532065E-6	-38.551146
1.53211E-6	-41.327683
1.532155E-6	-47.910215
1.5322E-6	-58.557372
1.532245E-6	-65.992894
1.53229E-6	-71.898347
1.532335E-6	-76.08712
1.53238E-6	-76.403542
1.532425E-6	-72.942218
1.53247E-6	-62.491832
1.532515E-6	-47.791078
1.53256E-6	-40.80399
1.532605E-6	-38.566729
1.53265E-6	-37.964232
1.532695E-6	-37.8199
1.53274E-6	-37.840982
1.532785E-6	-37.910215
1.53283E-6	-38.256494
1.532875E-6	-39.93962
1.53292E-6	-44.472101
1.532965E-6	-53.28642
1.53301E-6	-61.947711
1.533055E-6	-69.385475
1.5331E-6	-74.677554
1.533145E-6	-76.611453
1.53319E-6	-74.983931
1.533235E-6	-69.129288
1.53328E-6	-52.85335
1.533325E-6	-42.819137
1.53337E-6	-39.222688
1.533415E-6	-38.016179
1.53346E-6	-37.801536
1.533505E-6	-37.872798
1.53355E-6	-37.939841
1.533595E-6	-38.068754
1.53364E-6	-39.034376
1.533685E-6	-42.069084
1.53373E-6	-49.351678
1.533775E-6	-59.850597
1.53382E-6	-67.009287
1.533865E-6	-72.888679
1.53391E-6	-76.071273
1.533955E-6	-76.131445
1.534E-6	-72.652802
1.534045E-6	-60.89856
1.53409E-6	-46.888822
1.534135E-6	-40.391964
1.53418E-6	-38.247782
1.534225E-6	-37.846268
1.53427E-6	-37.862167
1.534315E-6	-37.94525
1.53436E-6	-38.06319
1.534405E-6	-38.53872
1.53445E-6	-40.797723
1.534495E-6	-46.06074
1.53454E-6	-55.553308
1.534585E-6	-63.866868
1.53463E-6	-70.853396
1.534675E-6	-75.713793
1.53472E-6	-76.880343
1.534765E-6	-74.444219
1.53481E-6	-68.088285
1.534855E-6	-51.330042
1.5349E-6	-42.113368
1.534945E-6	-38.890738
1.53499E-6	-37.89414
1.535035E-6	-37.835702
1.53508E-6	-37.920965
1.535125E-6	-38.024438
1.53517E-6	-38.271053
1.535215E-6	-39.519468
1.53526E-6	-43.052194
1.535305E-6	-50.359762
1.53535E-6	-61.444808
1.535395E-6	-68.477117
1.53544E-6	-73.784083
1.535485E-6	-76.575773
1.53553E-6	-76.29672
1.535575E-6	-71.809828
1.53562E-6	-59.854795
1.535665E-6	-46.420652
1.53571E-6	-40.172314
1.535755E-6	-38.173001
1.5358E-6	-37.788467
1.535845E-6	-37.825161
1.53589E-6	-37.939841
1.535935E-6	-38.005191
1.53598E-6	-38.607508
1.536025E-6	-40.965302
1.53607E-6	-46.430186
1.536115E-6	-56.571827
1.53616E-6	-64.710833
1.536205E-6	-71.384059
1.53625E-6	-75.818645
1.536295E-6	-77.256112
1.53634E-6	-74.558079
1.536385E-6	-67.088532
1.53643E-6	-51.725661
1.536475E-6	-42.225007
1.53652E-6	-38.972234
1.536565E-6	-37.939841
1.53661E-6	-37.880789
1.536655E-6	-37.883456
1.5367E-6	-37.966951
1.536745E-6	-38.193008
1.53679E-6	-39.400581
1.536835E-6	-42.931969
1.53688E-6	-50.618307
1.536925E-6	-61.860189
1.53697E-6	-68.774565
1.537015E-6	-73.876401
1.53706E-6	-77.189666
1.537105E-6	-76.19427
1.53715E-6	-72.016256
1.537195E-6	-60.311436
1.53724E-6	-46.591595
1.537285E-6	-40.359762
1.53733E-6	-38.356471
1.537375E-6	-37.929045
1.53742E-6	-37.899492
1.537465E-6	-37.92635
1.53751E-6	-38.005191
1.537555E-6	-38.480176
1.5376E-6	-40.694075
1.537645E-6	-46.283781
1.53769E-6	-56.318991
1.537735E-6	-64.391373
1.53778E-6	-71.169066
1.537825E-6	-76.08712
1.53787E-6	-77.18285
1.537915E-6	-75.000381
1.53796E-6	-69.215432
1.538005E-6	-52.860057
1.53805E-6	-42.79262
1.538095E-6	-39.251836
1.53814E-6	-38.079904
1.538185E-6	-37.90485
1.53823E-6	-37.85421
1.538275E-6	-37.891466
1.53832E-6	-38.007935
1.538365E-6	-39.072794
1.53841E-6	-42.624893
1.538455E-6	-49.710223
1.5385E-6	-61.121015
1.538545E-6	-67.9588
1.53859E-6	-73.332013
1.538635E-6	-76.649435
1.53868E-6	-76.952941
1.538725E-6	-72.835793
1.53877E-6	-61.427882
1.538815E-6	-47.594508
1.53886E-6	-40.856039
1.538905E-6	-38.591778
1.53895E-6	-38.071539
1.538995E-6	-37.991495
1.53904E-6	-37.915586
1.539085E-6	-37.9129
1.53913E-6	-38.268137
1.539175E-6	-40.294207
1.53922E-6	-45.374523
1.539265E-6	-55.184141
1.53931E-6	-63.443814
1.539355E-6	-70.519295
1.5394E-6	-75.394028
1.539445E-6	-76.940041
1.53949E-6	-75.132862
1.539535E-6	-69.956786
1.53958E-6	-53.52617
1.539625E-6	-43.233064
1.53967E-6	-39.476909
1.539715E-6	-38.22175
1.53976E-6	-37.93444
1.539805E-6	-37.870138
1.53985E-6	-37.835702
1.539895E-6	-37.864822
1.53994E-6	-38.784402
1.539985E-6	-42.004527
1.54003E-6	-48.890738
1.540075E-6	-60.186345
1.54012E-6	-67.344747
1.540165E-6	-72.816644
1.54021E-6	-76.647427
1.540255E-6	-76.815193
1.5403E-6	-73.620102
1.540345E-6	-63.612113
1.54039E-6	-48.774565
1.540435E-6	-41.304163
1.54048E-6	-38.732194
1.540525E-6	-38.01893
1.54057E-6	-37.896815
1.540615E-6	-37.8199
1.54066E-6	-37.770236
1.540705E-6	-38.021683
1.54075E-6	-39.779843
1.540795E-6	-44.308603
1.54084E-6	-53.343252
1.540885E-6	-62.028017
1.54093E-6	-69.314431
1.540975E-6	-74.808285
1.54102E-6	-76.356366
1.541065E-6	-75.797141
1.54111E-6	-70.876185
1.541155E-6	-55.836924
1.5412E-6	-44.162346
1.541245E-6	-39.952488
1.54129E-6	-38.428456
1.541335E-6	-38.06041
1.54138E-6	-37.947956
1.541425E-6	-37.891466
1.54147E-6	-37.896815
1.541515E-6	-38.563608
1.54156E-6	-41.214208
1.541605E-6	-47.47147
1.54165E-6	-57.85421
1.541695E-6	-65.715412
1.54174E-6	-71.612768
1.541785E-6	-75.985995
1.54183E-6	-76.959405
1.541875E-6	-74.234283
1.54192E-6	-66.055483
1.541965E-6	-50.383891
1.54201E-6	-41.866859
1.542055E-6	-38.941493
1.5421E-6	-38.068754
1.542145E-6	-37.883456
1.54219E-6	-37.822529
1.542235E-6	-37.754669
1.54228E-6	-37.867479
1.542325E-6	-39.062282
1.54237E-6	-42.652002
1.542415E-6	-50.107282
1.54246E-6	-61.326504
1.542505E-6	-68.239087
1.54255E-6	-73.451499
1.542595E-6	-76.736641
1.54264E-6	-76.811023
1.542685E-6	-72.533658
1.54273E-6	-60.800333
1.542775E-6	-47.233085
1.54282E-6	-40.654511
1.542865E-6	-38.560489
1.54291E-6	-38.06319
1.542955E-6	-37.977842
1.543E-6	-37.90485
1.543045E-6	-37.90485
1.54309E-6	-38.198741
1.543135E-6	-40.098832
1.54318E-6	-44.92819
1.543225E-6	-54.396151
1.54327E-6	-62.846653
1.543315E-6	-69.965395
1.54336E-6	-74.871822
1.543405E-6	-76.703988
1.54345E-6	-75.537736
1.543495E-6	-69.952488
1.54354E-6	-54.554359
1.543585E-6	-43.593198
1.54363E-6	-39.677843
1.543675E-6	-38.282735
1.54372E-6	-37.994231
1.543765E-6	-37.90485
1.54381E-6	-37.90217
1.543855E-6	-37.94525
1.5439E-6	-38.732194
1.543945E-6	-41.563935
1.54399E-6	-48.303256
1.544035E-6	-58.706324
1.54408E-6	-66.143937
1.544125E-6	-72.17026
1.54417E-6	-76.26904
1.544215E-6	-77.018021
1.54426E-6	-74.015378
1.544305E-6	-65.434821
1.54435E-6	-50.078443
1.544395E-6	-41.8303
1.54444E-6	-38.958544
1.544485E-6	-38.130437
1.54453E-6	-37.975117
1.544575E-6	-37.918275
1.54462E-6	-37.92635
1.544665E-6	-38.06319
1.54471E-6	-39.284862
1.544755E-6	-43.032069
1.5448E-6	-51.017686
1.544845E-6	-62.045371
1.54489E-6	-68.658229
1.544935E-6	-73.760275
1.54498E-6	-76.761294
1.545025E-6	-76.534514
1.54507E-6	-72.236621
1.545115E-6	-60.08331
1.54516E-6	-46.8867
1.545205E-6	-40.601315
1.54525E-6	-38.419392
1.545295E-6	-37.939841
1.54534E-6	-37.862167
1.545385E-6	-37.843624
1.54543E-6	-37.827793
1.545475E-6	-38.153086
1.54552E-6	-39.986991
1.545565E-6	-44.849213
1.54561E-6	-53.77268
1.545655E-6	-62.476442
1.5457E-6	-69.901244
1.545745E-6	-74.740487
1.54579E-6	-76.437829
1.545835E-6	-75.542402
1.54588E-6	-70.306773
1.545925E-6	-54.86516
1.54597E-6	-43.497896
1.546015E-6	-39.550685
1.54606E-6	-38.195874
1.546105E-6	-37.956087
1.54615E-6	-37.886124
1.546195E-6	-37.867479
1.54624E-6	-37.918275
1.546285E-6	-38.50473
1.54633E-6	-41.038046
1.546375E-6	-47.283907
1.54642E-6	-57.672579
1.546465E-6	-65.440898
1.54651E-6	-71.730834
1.546555E-6	-75.663902
1.5466E-6	-77.13319
1.546645E-6	-75.062632
1.54669E-6	-66.937895
1.546735E-6	-51.667891
1.54678E-6	-42.438966
1.546825E-6	-39.150664
1.54687E-6	-38.088285
1.546915E-6	-37.915586
1.54696E-6	-37.89414
1.547005E-6	-37.864822
1.54705E-6	-37.983298
1.547095E-6	-39.065783
1.54714E-6	-42.461872
1.547185E-6	-49.370422
1.54723E-6	-60.589858
1.547275E-6	-67.637147
1.54732E-6	-73.09361
1.547365E-6	-76.241536
1.54741E-6	-76.101254
1.547455E-6	-73.175841
1.5475E-6	-62.487209
1.547545E-6	-48.057633
1.54759E-6	-40.974532
1.547635E-6	-38.591778
1.54768E-6	-38.007935
1.547725E-6	-37.90485
1.54777E-6	-37.872798
1.547815E-6	-37.864822
1.54786E-6	-38.082696
1.547905E-6	-39.496202
1.54795E-6	-43.571399
1.547995E-6	-51.86419
1.54804E-6	-60.909791
1.548085E-6	-69.125735
1.54813E-6	-73.927595
1.548175E-6	-76.540385
1.54822E-6	-76.101254
1.548265E-6	-71.598939
1.54831E-6	-58.113527
1.548355E-6	-44.74696
1.5484E-6	-40.206338
1.548445E-6	-38.45576
1.54849E-6	-38.027194
1.548535E-6	-37.947956
1.54858E-6	-37.950665
1.548625E-6	-37.961515
1.54867E-6	-38.359447
1.548715E-6	-40.425364
1.54876E-6	-45.477534
1.548805E-6	-55.059846
1.54885E-6	-63.42275
1.548895E-6	-70.340461
1.54894E-6	-75.22734
1.548985E-6	-76.827727
1.54903E-6	-75.486742
1.549075E-6	-69.897
1.54912E-6	-54.580465
1.549165E-6	-43.688607
1.54921E-6	-39.629721
1.549255E-6	-38.190144
1.5493E-6	-37.9129
1.549345E-6	-37.859513
1.54939E-6	-37.846268
1.549435E-6	-37.910215
1.54948E-6	-38.471004
1.549525E-6	-40.940962
1.54957E-6	-46.73869
1.549615E-6	-56.720284
1.54966E-6	-64.423725
1.549705E-6	-71.202735
1.54975E-6	-75.792194
1.549795E-6	-76.532559
1.54984E-6	-74.429743
1.549885E-6	-68.113527
1.54993E-6	-51.85819
1.549975E-6	-42.376966
1.55002E-6	-39.058784
1.550065E-6	-37.994231
1.55011E-6	-37.798919
1.550155E-6	-37.780644
1.5502E-6	-37.770236
1.550245E-6	-37.851562
1.55029E-6	-38.591778
1.550335E-6	-41.447232
1.55038E-6	-48.207355
1.550425E-6	-58.800846
1.55047E-6	-66.192462
1.550515E-6	-72.081691
1.55056E-6	-76.205132
1.550605E-6	-76.857113
1.55065E-6	-73.920091
1.550695E-6	-64.907975
1.55074E-6	-49.653715
1.550785E-6	-41.62601
1.55083E-6	-38.820662
1.550875E-6	-38.016179
1.55092E-6	-37.878124
1.550965E-6	-37.833064
1.55101E-6	-37.838341
1.551055E-6	-37.956087
1.5511E-6	-38.999743
1.551145E-6	-42.505729
1.55119E-6	-49.863203
1.551235E-6	-61.062382
1.55128E-6	-67.754669
1.551325E-6	-73.151546
1.55137E-6	-76.267201
1.551415E-6	-76.058987
1.55146E-6	-72.880241
1.551505E-6	-62.800889
1.55155E-6	-47.991495
1.551595E-6	-41.089088
1.55164E-6	-38.725712
1.551685E-6	-38.107905
1.55173E-6	-37.988761
1.551775E-6	-37.942545
1.55182E-6	-37.966951
1.551865E-6	-38.10229
1.55191E-6	-39.531148
1.551955E-6	-43.598168
1.552E-6	-51.668529
1.552045E-6	-62.550033
1.55209E-6	-68.941493
1.552135E-6	-73.993538
1.55218E-6	-77.166988
1.552225E-6	-76.49752
1.55227E-6	-72.293689
1.552315E-6	-60.623317
1.55236E-6	-47.153437
1.552405E-6	-40.653501
1.55245E-6	-38.548036
1.552495E-6	-38.057633
1.55254E-6	-37.972393
1.552585E-6	-37.961515
1.55263E-6	-37.961515
1.552675E-6	-38.16161
1.55272E-6	-39.821323
1.552765E-6	-44.426131
1.55281E-6	-52.892904
1.552855E-6	-61.571412
1.5529E-6	-69.118639
1.552945E-6	-74.799097
1.55299E-6	-76.761294
1.553035E-6	-75.895602
1.55308E-6	-71.049091
1.553125E-6	-56.647427
1.55317E-6	-44.507514
1.553215E-6	-39.978339
1.55326E-6	-38.306195
1.553305E-6	-37.929045
1.55335E-6	-37.870138
1.553395E-6	-37.843624
1.55344E-6	-37.825161
1.553485E-6	-38.204482
1.55353E-6	-40.202696
1.553575E-6	-45.174122
1.55362E-6	-54.317983
1.553665E-6	-62.561768
1.55371E-6	-69.867413
1.553755E-6	-74.824083
1.5538E-6	-76.850799
1.553845E-6	-75.326879
1.55389E-6	-70.127808
1.553935E-6	-55.076587
1.55398E-6	-43.838397
1.554025E-6	-39.796387
1.55407E-6	-38.368386
1.554115E-6	-38.035475
1.55416E-6	-37.947956
1.554205E-6	-37.961515
1.55425E-6	-37.94525
1.554295E-6	-38.392314
1.55434E-6	-40.639892
1.554385E-6	-46.018863
1.55443E-6	-55.736514
1.554475E-6	-63.9794
1.55452E-6	-70.589858
1.554565E-6	-75.335773
1.55461E-6	-77.015836
1.554655E-6	-75.207127
1.5547E-6	-69.303319
1.554745E-6	-53.693688
1.55479E-6	-43.250471
1.554835E-6	-39.613798
1.55488E-6	-38.31208
1.554925E-6	-38.035475
1.55497E-6	-38.01893
1.555015E-6	-37.9588
1.55506E-6	-37.969671
1.555105E-6	-38.507809
1.55515E-6	-40.829674
1.555195E-6	-46.7305
1.55524E-6	-56.922901
1.555285E-6	-64.692882
1.55533E-6	-71.231474
1.555375E-6	-75.57677
1.55542E-6	-76.861328
1.555465E-6	-74.613006
1.55551E-6	-68.317973
1.555555E-6	-52.15454
1.5556E-6	-42.709162
1.555645E-6	-39.351678
1.55569E-6	-38.247782
1.555735E-6	-38.04931
1.55578E-6	-37.966951
1.555825E-6	-37.929045
1.55587E-6	-37.983298
1.555915E-6	-38.520147
1.55596E-6	-40.922126
1.556005E-6	-47.108572
1.55605E-6	-57.392133
1.556095E-6	-65.168408
1.55614E-6	-71.404414
1.556185E-6	-76.108339
1.55623E-6	-76.942188
1.556275E-6	-74.633153
1.55632E-6	-66.867657
1.556365E-6	-51.397818
1.55641E-6	-42.339591
1.556455E-6	-39.157813
1.5565E-6	-38.178708
1.556545E-6	-37.953375
1.55659E-6	-37.880789
1.556635E-6	-37.899492
1.55668E-6	-37.961515
1.556725E-6	-38.620133
1.55677E-6	-41.236667
1.556815E-6	-47.762445
1.55686E-6	-58.071539
1.556905E-6	-65.659104
1.55695E-6	-71.676188
1.556995E-6	-76.076548
1.55704E-6	-76.987529
1.557085E-6	-74.439388
1.55713E-6	-66.68168
1.557175E-6	-51.461802
1.55722E-6	-42.243168
1.557265E-6	-39.072794
1.55731E-6	-38.041003
1.557355E-6	-37.830428
1.5574E-6	-37.814645
1.557445E-6	-37.804155
1.55749E-6	-37.878124
1.557535E-6	-38.613816
1.55758E-6	-41.495989
1.557625E-6	-48.204482
1.55767E-6	-58.582368
1.557715E-6	-65.999804
1.55776E-6	-71.968161
1.557805E-6	-75.757719
1.55785E-6	-76.968039
1.557895E-6	-74.197595
1.55794E-6	-66.07303
1.557985E-6	-50.631848
1.55803E-6	-42.060002
1.558075E-6	-38.999743
1.55812E-6	-38.002448
1.558165E-6	-37.830428
1.55821E-6	-37.804155
1.558255E-6	-37.830428
1.5583E-6	-37.9129
1.558345E-6	-38.655041
1.55839E-6	-41.379879
1.558435E-6	-47.956087
1.55848E-6	-58.306195
1.558525E-6	-65.783961
1.55857E-6	-71.862189
1.558615E-6	-76.025815
1.55866E-6	-77.015836
1.558705E-6	-74.434563
1.55875E-6	-66.522798
1.558795E-6	-51.306509
1.55884E-6	-42.262867
1.558885E-6	-39.104481
1.55893E-6	-38.091083
1.558975E-6	-37.9129
1.55902E-6	-37.886124
1.559065E-6	-37.93444
1.55911E-6	-38.005191
1.559155E-6	-38.741935
1.5592E-6	-41.516261
1.559245E-6	-48.10229
1.55929E-6	-58.419392
1.559335E-6	-65.825283
1.55938E-6	-72.067686
1.559425E-6	-75.992894
1.55947E-6	-77.053134
1.559515E-6	-74.586704
1.55956E-6	-66.90157
1.559605E-6	-51.485582
1.55965E-6	-42.3905
1.559695E-6	-39.157813
1.55974E-6	-38.113527
1.559785E-6	-37.93714
1.55983E-6	-37.972393
1.559875E-6	-38.016179
1.55992E-6	-38.093882
1.559965E-6	-38.860566
1.56001E-6	-41.713401
1.560055E-6	-48.458805
1.5601E-6	-58.85389
1.560145E-6	-66.245193
1.56019E-6	-72.472603
1.560235E-6	-76.156466
1.56028E-6	-77.13319
1.560325E-6	-74.423725
1.56037E-6	-66.912222
1.560415E-6	-51.346591
1.56046E-6	-42.134615
1.560505E-6	-38.931295
1.56055E-6	-37.980569
1.560595E-6	-37.830428
1.56064E-6	-37.827793
1.560685E-6	-37.90217
1.56073E-6	-37.991495
1.560775E-6	-38.703101
1.56082E-6	-41.458155
1.560865E-6	-47.891466
1.56091E-6	-58.389316
1.560955E-6	-65.83859
1.561E-6	-71.990081
1.561045E-6	-76.088884
1.56109E-6	-77.119745
1.561135E-6	-74.625587
1.56118E-6	-68.712777
1.561225E-6	-52.455752
1.56127E-6	-42.631256
1.561315E-6	-39.172146
1.56136E-6	-38.052082
1.561405E-6	-37.931741
1.56145E-6	-37.947956
1.561495E-6	-38.002448
1.56154E-6	-38.091083
1.561585E-6	-38.725712
1.56163E-6	-41.29362
1.561675E-6	-47.6675
1.56172E-6	-57.767637
1.561765E-6	-65.450028
1.56181E-6	-71.701818
1.561855E-6	-76.298572
1.5619E-6	-76.829819
1.561945E-6	-75.50059
1.56199E-6	-69.755143
1.562035E-6	-53.84576
1.56208E-6	-43.040807
1.562125E-6	-39.277501
1.56217E-6	-38.016179
1.562215E-6	-37.827793
1.56226E-6	-37.856861
1.562305E-6	-37.907532
1.56235E-6	-38.010681
1.562395E-6	-38.529423
1.56244E-6	-40.843891
1.562485E-6	-46.365761
1.56253E-6	-56.26904
1.562575E-6	-64.274769
1.56262E-6	-70.919441
1.562665E-6	-75.412111
1.56271E-6	-77.498241
1.562755E-6	-75.915904
1.5628E-6	-70.380097
1.562845E-6	-55.282683
1.56289E-6	-43.56646
1.562935E-6	-39.438577
1.56298E-6	-37.956087
1.563025E-6	-37.754669
1.56307E-6	-37.775437
1.563115E-6	-37.835702
1.56316E-6	-37.947956
1.563205E-6	-38.416375
1.56325E-6	-40.478374
1.563295E-6	-45.73977
1.56334E-6	-55.422695
1.563385E-6	-63.610118
1.56343E-6	-70.355989
1.563475E-6	-75.581478
1.56352E-6	-77.654827
1.563565E-6	-76.095948
