Wavelength (nm)	Power (dBm)
1.525E-6	-50.635365
1.525045E-6	-50.479829
1.52509E-6	-50.399575
1.525135E-6	-50.401004
1.52518E-6	-50.401004
1.525225E-6	-50.309104
1.52527E-6	-50.17774
1.525315E-6	-50.062552
1.52536E-6	-49.961088
1.525405E-6	-49.825493
1.52545E-6	-49.685915
1.525495E-6	-49.453869
1.52554E-6	-49.139963
1.525585E-6	-48.880657
1.52563E-6	-48.722475
1.525675E-6	-48.588639
1.52572E-6	-48.449678
1.525765E-6	-48.306195
1.52581E-6	-48.198741
1.525855E-6	-48.153086
1.5259E-6	-48.253588
1.525945E-6	-48.395315
1.52599E-6	-48.419392
1.526035E-6	-48.344589
1.52608E-6	-48.268137
1.526125E-6	-48.16161
1.52617E-6	-48.079904
1.526215E-6	-47.964232
1.52626E-6	-47.726276
1.526305E-6	-47.340036
1.52635E-6	-47.000571
1.526395E-6	-46.823545
1.52644E-6	-46.689778
1.526485E-6	-46.575773
1.52653E-6	-46.468535
1.526575E-6	-46.397854
1.52662E-6	-46.356366
1.526665E-6	-46.482037
1.52671E-6	-46.7305
1.526755E-6	-46.880343
1.5268E-6	-46.867657
1.526845E-6	-46.813107
1.52689E-6	-46.742791
1.526935E-6	-46.659486
1.52698E-6	-46.5738
1.527025E-6	-46.378947
1.52707E-6	-45.883803
1.527115E-6	-45.479068
1.52716E-6	-45.246194
1.527205E-6	-45.127202
1.52725E-6	-45.055671
1.527295E-6	-44.989407
1.52734E-6	-44.89455
1.527385E-6	-44.895891
1.52743E-6	-45.047333
1.527475E-6	-45.50059
1.52752E-6	-45.759355
1.527565E-6	-45.800443
1.52761E-6	-45.807053
1.527655E-6	-45.767541
1.5277E-6	-45.721894
1.527745E-6	-45.683147
1.52779E-6	-45.499049
1.527835E-6	-45.047333
1.52788E-6	-44.535807
1.527925E-6	-44.189611
1.52797E-6	-44.099388
1.528015E-6	-44.080454
1.52806E-6	-44.058285
1.528105E-6	-43.994627
1.52815E-6	-43.976144
1.528195E-6	-44.127382
1.52824E-6	-44.661009
1.528285E-6	-45.121549
1.52833E-6	-45.332806
1.528375E-6	-45.325399
1.52842E-6	-45.298836
1.528465E-6	-45.304725
1.52851E-6	-45.295895
1.528555E-6	-45.215778
1.5286E-6	-44.86516
1.528645E-6	-44.175957
1.52869E-6	-43.78616
1.528735E-6	-43.643152
1.52878E-6	-43.660268
1.528825E-6	-43.624102
1.52887E-6	-43.615107
1.528915E-6	-43.627105
1.52896E-6	-43.732491
1.529005E-6	-44.201021
1.52905E-6	-44.826721
1.529095E-6	-45.218666
1.52914E-6	-45.322439
1.529185E-6	-45.30178
1.52923E-6	-45.290018
1.529275E-6	-45.341712
1.52932E-6	-45.326879
1.529365E-6	-44.997635
1.52941E-6	-44.340342
1.529455E-6	-43.779933
1.5295E-6	-43.59618
1.529545E-6	-43.549709
1.52959E-6	-43.569423
1.529635E-6	-43.534982
1.52968E-6	-43.573377
1.529725E-6	-43.624102
1.52977E-6	-44.031831
1.529815E-6	-44.74178
1.52986E-6	-45.273898
1.529905E-6	-45.422695
1.52995E-6	-45.44546
1.529995E-6	-45.457651
1.53004E-6	-45.479068
1.530085E-6	-45.4546
1.53013E-6	-45.341712
1.530175E-6	-44.717262
1.53022E-6	-44.020855
1.530265E-6	-43.656235
1.53031E-6	-43.577334
1.530355E-6	-43.619103
1.5304E-6	-43.620102
1.530445E-6	-43.574366
1.53049E-6	-43.615107
1.530535E-6	-43.943718
1.53058E-6	-44.587953
1.530625E-6	-45.318004
1.53067E-6	-45.537736
1.530715E-6	-45.627252
1.53076E-6	-45.622494
1.530805E-6	-45.649524
1.53085E-6	-45.67191
1.530895E-6	-45.572068
1.53094E-6	-45.084982
1.530985E-6	-44.320331
1.53103E-6	-43.810111
1.531075E-6	-43.686577
1.53112E-6	-43.656235
1.531165E-6	-43.711004
1.53121E-6	-43.630109
1.531255E-6	-43.687592
1.5313E-6	-43.832095
1.531345E-6	-44.371126
1.53139E-6	-45.201369
1.531435E-6	-45.612995
1.53148E-6	-45.73001
1.531525E-6	-45.760991
1.53157E-6	-45.772461
1.531615E-6	-45.77082
1.53166E-6	-45.757719
1.531705E-6	-45.418156
1.53175E-6	-44.66991
1.531795E-6	-44.028535
1.53184E-6	-43.799681
1.531885E-6	-43.784083
1.53193E-6	-43.774751
1.531975E-6	-43.77786
1.53202E-6	-43.790316
1.532065E-6	-43.838397
1.53211E-6	-44.22738
1.532155E-6	-44.937656
1.5322E-6	-45.590909
1.532245E-6	-45.783961
1.53229E-6	-45.800443
1.532335E-6	-45.836924
1.53238E-6	-45.858626
1.532425E-6	-45.812017
1.53247E-6	-45.68154
1.532515E-6	-45.093393
1.53256E-6	-44.320331
1.532605E-6	-43.939413
1.53265E-6	-43.860525
1.532695E-6	-43.853137
1.53274E-6	-43.82266
1.532785E-6	-43.802807
1.53283E-6	-43.868985
1.532875E-6	-44.126258
1.53292E-6	-44.748256
1.532965E-6	-45.412111
1.53301E-6	-45.779028
1.533055E-6	-45.83859
1.5331E-6	-45.845258
1.533145E-6	-45.845258
1.53319E-6	-45.873715
1.533235E-6	-45.762628
1.53328E-6	-45.450028
1.533325E-6	-44.718549
1.53337E-6	-44.206738
1.533415E-6	-44.041732
1.53346E-6	-44.025242
1.533505E-6	-44.003352
1.53355E-6	-44.041732
1.533595E-6	-44.061603
1.53364E-6	-44.183916
1.533685E-6	-44.563044
1.53373E-6	-45.259295
1.533775E-6	-45.712175
1.53382E-6	-45.810362
1.533865E-6	-45.872036
1.53391E-6	-45.88212
1.533955E-6	-45.895602
1.534E-6	-45.865326
1.534045E-6	-45.665502
1.53409E-6	-45.197055
1.534135E-6	-44.584208
1.53418E-6	-44.340342
1.534225E-6	-44.306261
1.53427E-6	-44.251588
1.534315E-6	-44.294571
1.53436E-6	-44.294571
1.534405E-6	-44.356891
1.53445E-6	-44.560561
1.534495E-6	-45.043169
1.53454E-6	-45.617742
1.534585E-6	-45.831931
1.53463E-6	-45.872036
1.534675E-6	-45.888856
1.53472E-6	-45.867002
1.534765E-6	-45.888856
1.53481E-6	-45.812017
1.534855E-6	-45.523769
1.5349E-6	-44.994891
1.534945E-6	-44.626847
1.53499E-6	-44.479405
1.535035E-6	-44.468455
1.53508E-6	-44.478187
1.535125E-6	-44.500164
1.53517E-6	-44.514877
1.535215E-6	-44.601714
1.53526E-6	-44.925489
1.535305E-6	-45.491353
1.53535E-6	-45.790546
1.535395E-6	-45.888856
1.53544E-6	-45.898979
1.535485E-6	-45.888856
1.53553E-6	-45.905741
1.535575E-6	-45.825283
1.53562E-6	-45.725139
1.535665E-6	-45.303252
1.53571E-6	-44.822764
1.535755E-6	-44.664821
1.5358E-6	-44.640733
1.535845E-6	-44.616777
1.53589E-6	-44.633153
1.535935E-6	-44.615519
1.53598E-6	-44.667365
1.536025E-6	-44.837291
1.53607E-6	-45.254924
1.536115E-6	-45.70894
1.53616E-6	-45.828606
1.536205E-6	-45.867002
1.53625E-6	-45.831931
1.536295E-6	-45.845258
1.53634E-6	-45.835259
1.536385E-6	-45.81533
1.53643E-6	-45.52842
1.536475E-6	-45.108856
1.53652E-6	-44.782084
1.536565E-6	-44.672456
1.53661E-6	-44.666093
1.536655E-6	-44.70698
1.5367E-6	-44.681381
1.536745E-6	-44.690323
1.53679E-6	-44.771647
1.536835E-6	-45.03901
1.53688E-6	-45.463759
1.536925E-6	-45.713793
1.53697E-6	-45.800443
1.537015E-6	-45.760991
1.53706E-6	-45.75445
1.537105E-6	-45.751184
1.53715E-6	-45.752817
1.537195E-6	-45.655908
1.53724E-6	-45.262212
1.537285E-6	-44.899915
1.53733E-6	-44.705696
1.537375E-6	-44.692882
1.53742E-6	-44.700566
1.537465E-6	-44.689045
1.53751E-6	-44.677554
1.537555E-6	-44.691602
1.5376E-6	-44.835969
1.537645E-6	-45.191311
1.53769E-6	-45.572068
1.537735E-6	-45.673513
1.53778E-6	-45.691191
1.537825E-6	-45.675117
1.53787E-6	-45.67191
1.537915E-6	-45.675117
1.53796E-6	-45.628839
1.538005E-6	-45.424209
1.53805E-6	-45.0515
1.538095E-6	-44.753443
1.53814E-6	-44.67373
1.538185E-6	-44.638205
1.53823E-6	-44.624327
1.538275E-6	-44.6572
1.53832E-6	-44.676279
1.538365E-6	-44.692882
1.53841E-6	-44.968906
1.538455E-6	-45.347659
1.5385E-6	-45.581478
1.538545E-6	-45.651119
1.53859E-6	-45.649524
1.538635E-6	-45.657505
1.53868E-6	-45.651119
1.538725E-6	-45.662302
1.53877E-6	-45.554868
1.538815E-6	-45.243288
1.53886E-6	-44.853195
1.538905E-6	-44.698003
1.53895E-6	-44.655931
1.538995E-6	-44.667365
1.53904E-6	-44.625587
1.539085E-6	-44.62055
1.53913E-6	-44.640733
1.539175E-6	-44.804345
1.53922E-6	-45.15131
1.539265E-6	-45.495969
1.53931E-6	-45.594057
1.539355E-6	-45.700863
1.5394E-6	-45.683147
1.539445E-6	-45.670307
1.53949E-6	-45.699249
1.539535E-6	-45.651119
1.53958E-6	-45.424209
1.539625E-6	-45.022413
1.53967E-6	-44.758636
1.539715E-6	-44.6572
1.53976E-6	-44.652126
1.539805E-6	-44.652126
1.53985E-6	-44.639468
1.539895E-6	-44.636941
1.53994E-6	-44.704413
1.539985E-6	-44.962093
1.54003E-6	-45.334289
1.540075E-6	-45.636783
1.54012E-6	-45.702477
1.540165E-6	-45.712175
1.54021E-6	-45.694412
1.540255E-6	-45.715412
1.5403E-6	-45.73001
1.540345E-6	-45.663902
1.54039E-6	-45.316527
1.540435E-6	-44.947143
1.54048E-6	-44.727569
1.540525E-6	-44.658469
1.54057E-6	-44.621809
1.540615E-6	-44.644527
1.54066E-6	-44.623068
1.540705E-6	-44.662279
1.54075E-6	-44.780778
1.540795E-6	-45.13853
1.54084E-6	-45.511392
1.540885E-6	-45.715412
1.54093E-6	-45.73977
1.540975E-6	-45.783961
1.54102E-6	-45.783961
1.541065E-6	-45.783961
1.54111E-6	-45.765903
1.541155E-6	-45.583049
1.5412E-6	-45.212892
1.541245E-6	-44.808285
1.54129E-6	-44.6572
1.541335E-6	-44.645793
1.54138E-6	-44.633153
1.541425E-6	-44.66355
1.54147E-6	-44.644527
1.541515E-6	-44.713404
1.54156E-6	-44.913356
1.541605E-6	-45.350636
1.54165E-6	-45.710557
1.541695E-6	-45.76918
1.54174E-6	-45.855281
1.541785E-6	-45.826944
1.54183E-6	-45.717032
1.541875E-6	-45.176982
1.54192E-6	-41.743143
1.541965E-6	-29.020489
1.54201E-6	-21.262726
1.542055E-6	-18.071539
1.5421E-6	-17.108572
1.542145E-6	-16.907958
1.54219E-6	-16.850799
1.542235E-6	-16.800616
1.54228E-6	-16.916491
1.542325E-6	-18.138916
1.54237E-6	-21.719849
1.542415E-6	-29.488475
1.54246E-6	-39.411945
1.542505E-6	-44.137504
1.54255E-6	-45.482136
1.542595E-6	-45.772461
1.54264E-6	-45.835259
1.542685E-6	-45.855281
1.54273E-6	-45.760991
1.542775E-6	-45.413622
1.54282E-6	-44.959371
1.542865E-6	-44.714689
1.54291E-6	-44.671183
1.542955E-6	-44.661009
1.543E-6	-44.662279
1.543045E-6	-44.66991
1.54309E-6	-44.691602
1.543135E-6	-44.816177
1.54318E-6	-45.207127
1.543225E-6	-45.647929
1.54327E-6	-45.885487
1.543315E-6	-45.924392
1.54336E-6	-45.909126
1.543405E-6	-45.855281
1.54345E-6	-45.595632
1.543495E-6	-44.189611
1.54354E-6	-33.173135
1.543585E-6	-23.139002
1.54363E-6	-19.010104
1.543675E-6	-17.444863
1.54372E-6	-17.162466
1.543765E-6	-17.110804
1.54381E-6	-17.059749
1.543855E-6	-17.130946
1.5439E-6	-17.9129
1.543945E-6	-20.723217
1.54399E-6	-27.300203
1.544035E-6	-37.539941
1.54408E-6	-43.486251
1.544125E-6	-45.437858
1.54417E-6	-45.850267
1.544215E-6	-45.943122
1.54426E-6	-45.979106
1.544305E-6	-45.927791
1.54435E-6	-45.625666
1.544395E-6	-45.115903
1.54444E-6	-44.799097
1.544485E-6	-44.712118
1.54453E-6	-44.70698
1.544575E-6	-44.712118
1.54462E-6	-44.708264
1.544665E-6	-44.712118
1.54471E-6	-44.800408
1.544755E-6	-45.115903
1.5448E-6	-45.625666
1.544845E-6	-45.944829
1.54489E-6	-46.031036
1.544935E-6	-46.017127
1.54498E-6	-45.992894
1.545025E-6	-45.861975
1.54507E-6	-45.064026
1.545115E-6	-38.27689
1.54516E-6	-25.617742
1.545205E-6	-20.052431
1.54525E-6	-17.817271
1.545295E-6	-17.276942
1.54534E-6	-17.203331
1.545385E-6	-17.187393
1.54543E-6	-17.187393
1.545475E-6	-17.530093
1.54552E-6	-19.408154
1.545565E-6	-24.27942
1.54561E-6	-33.482376
1.545655E-6	-41.833611
1.5457E-6	-45.061239
1.545745E-6	-45.845258
1.54579E-6	-46.017127
1.545835E-6	-46.07303
1.54588E-6	-46.06074
1.545925E-6	-45.873715
1.54597E-6	-45.406075
1.546015E-6	-44.975729
1.54606E-6	-44.805658
1.546105E-6	-44.774254
1.54615E-6	-44.77295
1.546195E-6	-44.771647
1.54624E-6	-44.758636
1.546285E-6	-44.796475
1.54633E-6	-45.023794
1.546375E-6	-45.514483
1.54642E-6	-45.944829
1.546465E-6	-46.090649
1.54651E-6	-46.118988
1.546555E-6	-46.103025
1.5466E-6	-46.055483
1.546645E-6	-45.679933
1.54669E-6	-43.343252
1.546735E-6	-30.418663
1.54678E-6	-22.008663
1.546825E-6	-18.613816
1.54687E-6	-17.476325
1.546915E-6	-17.286231
1.54696E-6	-17.249191
1.547005E-6	-17.228494
1.54705E-6	-17.363639
1.547095E-6	-18.443604
1.54714E-6	-21.802587
1.547185E-6	-29.299621
1.54723E-6	-39.457701
1.547275E-6	-44.294571
1.54732E-6	-45.712175
1.547365E-6	-46.062494
1.54741E-6	-46.129663
1.547455E-6	-46.140364
1.5475E-6	-46.066003
1.547545E-6	-45.684754
1.54759E-6	-45.181276
1.547635E-6	-44.898573
1.54768E-6	-44.824083
1.547725E-6	-44.808285
1.54777E-6	-44.808285
1.547815E-6	-44.818811
1.54786E-6	-44.829361
1.547905E-6	-44.949858
1.54795E-6	-45.31505
1.547995E-6	-45.816987
1.54804E-6	-46.108339
1.548085E-6	-46.176227
1.54813E-6	-46.183435
1.548175E-6	-46.151092
1.54822E-6	-45.977386
1.548265E-6	-45.018273
1.54831E-6	-36.278247
1.548355E-6	-24.825402
1.5484E-6	-19.75925
1.548445E-6	-17.78325
1.54849E-6	-17.340036
1.548535E-6	-17.276942
1.54858E-6	-17.244583
1.548625E-6	-17.267672
1.54867E-6	-17.672579
1.548715E-6	-19.714287
1.54876E-6	-24.806972
1.548805E-6	-34.577972
1.54885E-6	-42.25556
1.548895E-6	-45.270973
1.54894E-6	-45.991168
1.548985E-6	-46.14215
1.54903E-6	-46.167233
1.549075E-6	-46.151092
1.54912E-6	-45.941416
1.549165E-6	-45.495969
1.54921E-6	-45.048721
1.549255E-6	-44.871822
1.5493E-6	-44.821446
1.549345E-6	-44.818811
1.54939E-6	-44.821446
1.549435E-6	-44.813545
1.54948E-6	-44.862498
1.549525E-6	-45.079384
1.54957E-6	-45.542402
1.549615E-6	-45.980827
1.54966E-6	-46.165437
1.549705E-6	-46.196078
1.54975E-6	-46.178028
1.549795E-6	-46.108339
1.54984E-6	-45.73977
1.549885E-6	-43.660268
1.54993E-6	-31.159414
1.549975E-6	-22.356744
1.55002E-6	-18.735439
1.550065E-6	-17.517814
1.55011E-6	-17.328283
1.550155E-6	-17.300203
1.5502E-6	-17.295541
1.550245E-6	-17.344747
1.55029E-6	-18.113527
1.550335E-6	-20.918368
1.55038E-6	-27.544873
1.550425E-6	-38.013429
1.55047E-6	-43.732491
1.550515E-6	-45.609833
1.55056E-6	-46.029295
1.550605E-6	-46.11366
1.55065E-6	-46.129663
1.550695E-6	-46.092415
1.55074E-6	-45.77082
1.550785E-6	-45.234582
1.55083E-6	-44.87983
1.550875E-6	-44.774254
1.55092E-6	-44.752146
1.550965E-6	-44.748256
1.55101E-6	-44.757337
1.551055E-6	-44.752146
1.5511E-6	-44.820128
1.551145E-6	-45.127202
1.55119E-6	-45.659104
1.551235E-6	-46.041496
1.55128E-6	-46.138579
1.551325E-6	-46.138579
1.55137E-6	-46.095948
1.551415E-6	-45.989443
1.55146E-6	-45.36107
1.551505E-6	-40.770152
1.55155E-6	-27.053134
1.551595E-6	-20.703767
1.55164E-6	-18.035475
1.551685E-6	-17.316561
1.55173E-6	-17.191941
1.551775E-6	-17.162466
1.55182E-6	-17.155693
1.551865E-6	-17.318903
1.55191E-6	-18.751699
1.551955E-6	-22.672847
1.552E-6	-31.079054
1.552045E-6	-40.359762
1.55209E-6	-44.628108
1.552135E-6	-45.779028
1.55218E-6	-46.018863
1.552225E-6	-46.062494
1.55227E-6	-46.090649
1.552315E-6	-45.967079
1.55236E-6	-45.506759
1.552405E-6	-44.967542
1.55245E-6	-44.698003
1.552495E-6	-44.641997
1.55254E-6	-44.634416
1.552585E-6	-44.639468
1.55263E-6	-44.635678
1.552675E-6	-44.635678
1.55272E-6	-44.771647
1.552765E-6	-45.210009
1.55281E-6	-45.747919
1.552855E-6	-46.029295
1.5529E-6	-46.071273
1.552945E-6	-46.06074
1.55299E-6	-46.018863
1.553035E-6	-45.836924
1.55308E-6	-44.7379
1.553125E-6	-35.873715
1.55317E-6	-24.307432
1.553215E-6	-19.427144
1.55326E-6	-17.539941
1.553305E-6	-17.113037
1.55335E-6	-17.059749
1.553395E-6	-17.026773
1.55344E-6	-17.018021
1.553485E-6	-17.416022
1.55353E-6	-19.41574
1.553575E-6	-24.364003
1.55362E-6	-33.847867
1.553665E-6	-41.689625
1.55371E-6	-45.001755
1.553755E-6	-45.813673
1.5538E-6	-45.989443
1.553845E-6	-46.027554
1.55389E-6	-46.018863
1.553935E-6	-45.797141
1.55398E-6	-45.26513
1.554025E-6	-44.779472
1.55407E-6	-44.576726
1.554115E-6	-44.541982
1.55416E-6	-44.527177
1.554205E-6	-44.516106
1.55425E-6	-44.507514
1.554295E-6	-44.527177
1.55434E-6	-44.753443
1.554385E-6	-45.262212
1.55443E-6	-45.777385
1.554475E-6	-45.996347
1.55452E-6	-46.029295
1.554565E-6	-46.039751
1.55461E-6	-46.048484
1.554655E-6	-46.048484
1.5547E-6	-45.996347
1.554745E-6	-45.741399
1.55479E-6	-45.181276
1.554835E-6	-44.70313
1.55488E-6	-44.514877
1.554925E-6	-44.470885
1.55497E-6	-44.444219
1.555015E-6	-44.438182
1.55506E-6	-44.447846
1.555105E-6	-44.492826
1.55515E-6	-44.734023
1.555195E-6	-45.26659
1.55524E-6	-45.774102
1.555285E-6	-45.977386
1.55533E-6	-46.008457
1.555375E-6	-46.011923
1.55542E-6	-46.015392
1.555465E-6	-46.006725
1.55551E-6	-45.949953
1.555555E-6	-45.655908
1.5556E-6	-45.071
1.555645E-6	-44.607984
1.55569E-6	-44.444219
1.555735E-6	-44.415314
1.55578E-6	-44.398542
1.555825E-6	-44.390179
1.55587E-6	-44.403327
1.555915E-6	-44.46117
1.55596E-6	-44.713404
1.556005E-6	-45.260753
1.55605E-6	-45.757719
1.556095E-6	-45.948245
1.55614E-6	-45.982549
1.556185E-6	-45.99462
1.55623E-6	-45.991168
1.556275E-6	-45.977386
1.55632E-6	-45.927791
1.556365E-6	-45.616159
1.55641E-6	-45.030704
1.556455E-6	-44.577972
1.5565E-6	-44.408118
1.556545E-6	-44.367563
1.55659E-6	-44.35926
1.556635E-6	-44.35926
1.55668E-6	-44.36875
1.556725E-6	-44.414114
1.55677E-6	-44.683934
1.556815E-6	-45.263671
1.55686E-6	-45.759355
1.556905E-6	-45.934598
1.55695E-6	-45.979106
1.556995E-6	-45.975667
1.55704E-6	-45.963648
1.557085E-6	-45.963648
1.55713E-6	-45.905741
1.557175E-6	-45.57677
1.55722E-6	-44.970269
1.557265E-6	-44.540747
1.55731E-6	-44.392567
1.557355E-6	-44.356891
1.5574E-6	-44.354523
1.557445E-6	-44.366376
1.55749E-6	-44.375882
1.557535E-6	-44.430947
1.55758E-6	-44.717262
1.557625E-6	-45.282683
1.55767E-6	-45.775743
1.557715E-6	-45.949953
1.55776E-6	-45.975667
1.557805E-6	-45.977386
1.55785E-6	-45.968795
1.557895E-6	-45.967079
1.55794E-6	-45.909126
1.557985E-6	-45.578339
1.55803E-6	-44.975729
1.558075E-6	-44.548166
1.55812E-6	-44.388986
1.558165E-6	-44.372315
1.55821E-6	-44.381833
1.558255E-6	-44.386601
1.5583E-6	-44.390179
1.558345E-6	-44.428539
1.55839E-6	-44.717262
1.558435E-6	-45.281218
1.55848E-6	-45.797141
1.558525E-6	-45.970512
1.55857E-6	-45.984272
1.558615E-6	-45.991168
1.55866E-6	-45.977386
1.558705E-6	-45.984272
1.55875E-6	-45.944829
1.558795E-6	-45.611413
1.55884E-6	-45.025175
1.558885E-6	-44.600462
1.55893E-6	-44.464811
1.558975E-6	-44.449056
1.55902E-6	-44.468455
1.559065E-6	-44.473318
1.55911E-6	-44.463597
1.559155E-6	-44.513649
1.5592E-6	-44.795165
1.559245E-6	-45.367044
1.55929E-6	-45.848596
1.559335E-6	-46.003263
1.55938E-6	-46.027554
1.559425E-6	-46.032777
1.55947E-6	-46.024076
1.559515E-6	-46.038007
1.55956E-6	-46.001533
1.559605E-6	-45.657505
1.55965E-6	-45.09901
1.559695E-6	-44.677554
1.55974E-6	-44.548166
1.559785E-6	-44.540747
1.55983E-6	-44.550642
1.559875E-6	-44.550642
1.55992E-6	-44.55932
1.559965E-6	-44.61175
1.56001E-6	-44.905286
1.560055E-6	-45.453076
1.5601E-6	-45.909126
1.560145E-6	-46.06074
1.56019E-6	-46.085356
1.560235E-6	-46.076548
1.56028E-6	-46.085356
1.560325E-6	-46.094181
1.56037E-6	-46.06074
1.560415E-6	-45.767541
1.56046E-6	-45.208568
1.560505E-6	-44.808285
1.56055E-6	-44.692882
1.560595E-6	-44.683934
1.56064E-6	-44.683934
1.560685E-6	-44.681381
1.56073E-6	-44.685211
1.560775E-6	-44.74178
1.56082E-6	-45.010006
1.560865E-6	-45.506759
1.56091E-6	-45.961934
1.560955E-6	-46.101254
1.561E-6	-46.124322
1.561045E-6	-46.129663
1.56109E-6	-46.14215
1.561135E-6	-46.145725
1.56118E-6	-46.103025
1.561225E-6	-45.841923
1.56127E-6	-45.335773
1.561315E-6	-44.956651
1.56136E-6	-44.834646
1.561405E-6	-44.825402
1.56145E-6	-44.820128
1.561495E-6	-44.826721
1.56154E-6	-44.833324
1.561585E-6	-44.871822
1.56163E-6	-45.106041
1.561675E-6	-45.578339
1.56172E-6	-45.985995
1.561765E-6	-46.143937
1.56181E-6	-46.170829
1.561855E-6	-46.181632
1.5619E-6	-46.192462
1.561945E-6	-46.192462
1.56199E-6	-46.154674
1.562035E-6	-45.948245
1.56208E-6	-45.49443
1.562125E-6	-45.124374
1.56217E-6	-44.985299
1.562215E-6	-44.949858
1.56226E-6	-44.952574
1.562305E-6	-44.952574
1.56235E-6	-44.962093
1.562395E-6	-44.990778
1.56244E-6	-45.184141
1.562485E-6	-45.597208
1.56253E-6	-46.004993
1.562575E-6	-46.167233
1.56262E-6	-46.212388
1.562665E-6	-46.223296
1.56271E-6	-46.22876
1.562755E-6	-46.239708
1.5628E-6	-46.196078
1.562845E-6	-46.031036
1.56289E-6	-45.638374
1.562935E-6	-45.262212
1.56298E-6	-45.107448
1.563025E-6	-45.076587
1.56307E-6	-45.077985
1.563115E-6	-45.077985
1.56316E-6	-45.093393
1.563205E-6	-45.135695
1.56325E-6	-45.285616
1.563295E-6	-45.641556
1.56334E-6	-46.03452
1.563385E-6	-46.20332
1.56343E-6	-46.252517
