Wavelength (nm)	Power (dBm)
1.525E-6	-48.404328
1.525045E-6	-48.259402
1.52509E-6	-48.144578
1.525135E-6	-48.054857
1.52518E-6	-47.966951
1.525225E-6	-47.827793
1.52527E-6	-47.700623
1.525315E-6	-47.574586
1.52536E-6	-47.452103
1.525405E-6	-47.335331
1.52545E-6	-47.210179
1.525495E-6	-47.042131
1.52554E-6	-46.861328
1.525585E-6	-46.691805
1.52563E-6	-46.565914
1.525675E-6	-46.449318
1.52572E-6	-46.315272
1.525765E-6	-46.190655
1.52581E-6	-46.083593
1.525855E-6	-46.015392
1.5259E-6	-45.979106
1.525945E-6	-45.972229
1.52599E-6	-45.905741
1.526035E-6	-45.833595
1.52608E-6	-45.731635
1.526125E-6	-45.670307
1.52617E-6	-45.547072
1.526215E-6	-45.453076
1.52626E-6	-45.30178
1.526305E-6	-45.066814
1.52635E-6	-44.92684
1.526395E-6	-44.812229
1.52644E-6	-44.677554
1.526485E-6	-44.605475
1.52653E-6	-44.521023
1.526575E-6	-44.452686
1.52662E-6	-44.415314
1.526665E-6	-44.427335
1.52671E-6	-44.433357
1.526755E-6	-44.438182
1.5268E-6	-44.397346
1.526845E-6	-44.350973
1.52689E-6	-44.319157
1.526935E-6	-44.198737
1.52698E-6	-44.165745
1.527025E-6	-44.007721
1.52707E-6	-43.816381
1.527115E-6	-43.616106
1.52716E-6	-43.488189
1.527205E-6	-43.3762
1.52725E-6	-43.364875
1.527295E-6	-43.267026
1.52734E-6	-43.236723
1.527385E-6	-43.229408
1.52743E-6	-43.296614
1.527475E-6	-43.402739
1.52752E-6	-43.452461
1.527565E-6	-43.438059
1.52761E-6	-43.462088
1.527655E-6	-43.418932
1.5277E-6	-43.320803
1.527745E-6	-43.328273
1.52779E-6	-43.256901
1.527835E-6	-43.059215
1.52788E-6	-42.866775
1.527925E-6	-42.689756
1.52797E-6	-42.678476
1.528015E-6	-42.621715
1.52806E-6	-42.609818
1.528105E-6	-42.590849
1.52815E-6	-42.603486
1.528195E-6	-42.66562
1.52824E-6	-42.860057
1.528285E-6	-43.012037
1.52833E-6	-43.1078
1.528375E-6	-43.091839
1.52842E-6	-43.086532
1.528465E-6	-43.034689
1.52851E-6	-43.062731
1.528555E-6	-43.046935
1.5286E-6	-42.897134
1.528645E-6	-42.701875
1.52869E-6	-42.530546
1.528735E-6	-42.471836
1.52878E-6	-42.44049
1.528825E-6	-42.435921
1.52887E-6	-42.48952
1.528915E-6	-42.466468
1.52896E-6	-42.527436
1.529005E-6	-42.710784
1.52905E-6	-43.009431
1.529095E-6	-43.081232
1.52914E-6	-43.16953
1.529185E-6	-43.147959
1.52923E-6	-43.186683
1.529275E-6	-43.173135
1.52932E-6	-43.200273
1.529365E-6	-43.13185
1.52941E-6	-42.90052
1.529455E-6	-42.664817
1.5295E-6	-42.592427
1.529545E-6	-42.57825
1.52959E-6	-42.542228
1.529635E-6	-42.57432
1.52968E-6	-42.645608
1.529725E-6	-42.658405
1.52977E-6	-42.838297
1.529815E-6	-43.128279
1.52986E-6	-43.34044
1.529905E-6	-43.37809
1.52995E-6	-43.428485
1.529995E-6	-43.502758
1.53004E-6	-43.458235
1.530085E-6	-43.502758
1.53013E-6	-43.397038
1.530175E-6	-43.223018
1.53022E-6	-42.958495
1.530265E-6	-42.845817
1.53031E-6	-42.766264
1.530355E-6	-42.802545
1.5304E-6	-42.834124
1.530445E-6	-42.806687
1.53049E-6	-42.846653
1.530535E-6	-42.988639
1.53058E-6	-43.239469
1.530625E-6	-43.529106
1.53067E-6	-43.643152
1.530715E-6	-43.611116
1.53076E-6	-43.662287
1.530805E-6	-43.641143
1.53085E-6	-43.666326
1.530895E-6	-43.652205
1.53094E-6	-43.511523
1.530985E-6	-43.230322
1.53103E-6	-43.025091
1.531075E-6	-42.938799
1.53112E-6	-42.98432
1.531165E-6	-42.97828
1.53121E-6	-42.98432
1.531255E-6	-43.001623
1.5313E-6	-43.044308
1.531345E-6	-43.302184
1.53139E-6	-43.616106
1.531435E-6	-43.76544
1.53148E-6	-43.760275
1.531525E-6	-43.80385
1.53157E-6	-43.843655
1.531615E-6	-43.81429
1.53166E-6	-43.840499
1.531705E-6	-43.721223
1.53175E-6	-43.467875
1.531795E-6	-43.236723
1.53184E-6	-43.112243
1.531885E-6	-43.105136
1.53193E-6	-43.106023
1.531975E-6	-43.110465
1.53202E-6	-43.105136
1.532065E-6	-43.142583
1.53211E-6	-43.304972
1.532155E-6	-43.617105
1.5322E-6	-43.844708
1.532245E-6	-43.894463
1.53229E-6	-43.92545
1.532335E-6	-43.930815
1.53238E-6	-43.943718
1.532425E-6	-43.909395
1.53247E-6	-43.867926
1.532515E-6	-43.668346
1.53256E-6	-43.397038
1.532605E-6	-43.223018
1.53265E-6	-43.212996
1.532695E-6	-43.181259
1.53274E-6	-43.192114
1.532785E-6	-43.179452
1.53283E-6	-43.22393
1.532875E-6	-43.322669
1.53292E-6	-43.587242
1.532965E-6	-43.829997
1.53301E-6	-43.941565
1.533055E-6	-43.990271
1.5331E-6	-43.971807
1.533145E-6	-43.980486
1.53319E-6	-43.998987
1.533235E-6	-43.990271
1.53328E-6	-43.815335
1.533325E-6	-43.579314
1.53337E-6	-43.389449
1.533415E-6	-43.302184
1.53346E-6	-43.293831
1.533505E-6	-43.316141
1.53355E-6	-43.315209
1.533595E-6	-43.346066
1.53364E-6	-43.385659
1.533685E-6	-43.533023
1.53373E-6	-43.804893
1.533775E-6	-43.965308
1.53382E-6	-44.009908
1.533865E-6	-44.041732
1.53391E-6	-44.004444
1.533955E-6	-44.04614
1.534E-6	-44.011001
1.534045E-6	-43.963145
1.53409E-6	-43.794476
1.534135E-6	-43.54676
1.53418E-6	-43.454384
1.534225E-6	-43.451499
1.53427E-6	-43.415116
1.534315E-6	-43.410352
1.53436E-6	-43.425617
1.534405E-6	-43.449577
1.53445E-6	-43.544795
1.534495E-6	-43.744818
1.53454E-6	-43.923306
1.534585E-6	-44.018664
1.53463E-6	-44.031831
1.534675E-6	-44.074902
1.53472E-6	-44.023048
1.534765E-6	-44.024145
1.53481E-6	-44.006629
1.534855E-6	-43.895528
1.5349E-6	-43.719177
1.534945E-6	-43.539886
1.53499E-6	-43.470771
1.535035E-6	-43.479472
1.53508E-6	-43.46691
1.535125E-6	-43.49304
1.53517E-6	-43.515424
1.535215E-6	-43.547743
1.53526E-6	-43.670368
1.535305E-6	-43.898724
1.53535E-6	-43.996807
1.535395E-6	-44.050553
1.53544E-6	-44.056074
1.535485E-6	-44.060497
1.53553E-6	-43.993538
1.535575E-6	-44.013189
1.53562E-6	-43.973975
1.535665E-6	-43.808023
1.53571E-6	-43.631111
1.535755E-6	-43.528127
1.5358E-6	-43.501785
1.535845E-6	-43.505678
1.53589E-6	-43.513473
1.535935E-6	-43.5164
1.53598E-6	-43.502758
1.536025E-6	-43.606131
1.53607E-6	-43.757179
1.536115E-6	-43.92545
1.53616E-6	-43.968556
1.536205E-6	-43.993538
1.53625E-6	-43.967473
1.536295E-6	-43.957739
1.53634E-6	-43.955579
1.536385E-6	-43.938337
1.53643E-6	-43.84576
1.536475E-6	-43.642148
1.53652E-6	-43.534002
1.536565E-6	-43.515424
1.53661E-6	-43.474636
1.536655E-6	-43.49304
1.5367E-6	-43.484313
1.536745E-6	-43.480439
1.53679E-6	-43.504704
1.536835E-6	-43.611116
1.53688E-6	-43.760275
1.536925E-6	-43.857357
1.53697E-6	-43.878522
1.537015E-6	-43.877461
1.53706E-6	-43.837346
1.537105E-6	-43.846813
1.53715E-6	-43.842603
1.537195E-6	-43.799681
1.53724E-6	-43.663296
1.537285E-6	-43.506651
1.53733E-6	-43.407495
1.537375E-6	-43.379036
1.53742E-6	-43.368647
1.537465E-6	-43.418932
1.53751E-6	-43.408447
1.537555E-6	-43.394191
1.5376E-6	-43.426573
1.537645E-6	-43.617105
1.53769E-6	-43.722246
1.537735E-6	-43.76544
1.53778E-6	-43.784083
1.537825E-6	-43.76544
1.53787E-6	-43.77061
1.537915E-6	-43.775787
1.53796E-6	-43.768541
1.538005E-6	-43.645163
1.53805E-6	-43.489159
1.538095E-6	-43.371478
1.53814E-6	-43.343252
1.538185E-6	-43.346066
1.53823E-6	-43.310553
1.538275E-6	-43.339503
1.53832E-6	-43.314277
1.538365E-6	-43.337629
1.53841E-6	-43.445734
1.538455E-6	-43.573377
1.5385E-6	-43.707943
1.538545E-6	-43.711004
1.53859E-6	-43.726341
1.538635E-6	-43.706924
1.53868E-6	-43.721223
1.538725E-6	-43.725317
1.53877E-6	-43.657243
1.538815E-6	-43.527149
1.53886E-6	-43.396089
1.538905E-6	-43.332013
1.53895E-6	-43.300326
1.538995E-6	-43.304042
1.53904E-6	-43.295686
1.539085E-6	-43.287346
1.53913E-6	-43.301255
1.539175E-6	-43.370534
1.53922E-6	-43.523237
1.539265E-6	-43.637127
1.53931E-6	-43.707943
1.539355E-6	-43.696738
1.5394E-6	-43.707943
1.539445E-6	-43.713046
1.53949E-6	-43.747905
1.539535E-6	-43.701828
1.53958E-6	-43.630109
1.539625E-6	-43.46884
1.53967E-6	-43.341377
1.539715E-6	-43.307761
1.53976E-6	-43.275327
1.539805E-6	-43.290124
1.53985E-6	-43.284569
1.539895E-6	-43.291977
1.53994E-6	-43.321736
1.539985E-6	-43.440936
1.54003E-6	-43.613111
1.540075E-6	-43.67644
1.54012E-6	-43.7202
1.540165E-6	-43.747905
1.54021E-6	-43.768541
1.540255E-6	-43.753055
1.5403E-6	-43.746875
1.540345E-6	-43.689623
1.54039E-6	-43.590219
1.540435E-6	-43.401788
1.54048E-6	-43.336693
1.540525E-6	-43.312415
1.54057E-6	-43.302184
1.540615E-6	-43.266104
1.54066E-6	-43.27625
1.540705E-6	-43.322669
1.54075E-6	-43.37809
1.540795E-6	-43.517376
1.54084E-6	-43.685562
1.540885E-6	-43.726341
1.54093E-6	-43.798639
1.540975E-6	-43.785121
1.54102E-6	-43.795516
1.541065E-6	-43.796557
1.54111E-6	-43.78097
1.541155E-6	-43.706924
1.5412E-6	-43.518352
1.541245E-6	-43.373366
1.54129E-6	-43.336693
1.541335E-6	-43.302184
1.54138E-6	-43.285494
1.541425E-6	-43.29847
1.54147E-6	-43.342314
1.541515E-6	-43.347944
1.54156E-6	-43.447655
1.541605E-6	-43.636124
1.54165E-6	-43.73557
1.541695E-6	-43.821613
1.54174E-6	-43.828948
1.541785E-6	-43.832095
1.54183E-6	-43.835245
1.541875E-6	-43.839448
1.54192E-6	-43.799681
1.541965E-6	-43.668346
1.54201E-6	-43.498868
1.542055E-6	-43.389449
1.5421E-6	-43.346066
1.542145E-6	-43.329208
1.54219E-6	-43.329208
1.542235E-6	-43.35358
1.54228E-6	-43.372422
1.542325E-6	-43.366761
1.54237E-6	-43.557584
1.542415E-6	-43.693688
1.54246E-6	-43.828948
1.542505E-6	-43.859469
1.54255E-6	-43.898724
1.542595E-6	-43.865811
1.54264E-6	-43.89127
1.542685E-6	-43.854191
1.54273E-6	-43.839448
1.542775E-6	-43.667336
1.54282E-6	-43.478504
1.542865E-6	-43.388501
1.54291E-6	-43.349822
1.542955E-6	-43.380927
1.543E-6	-43.394191
1.543045E-6	-43.400838
1.54309E-6	-43.411304
1.543135E-6	-43.494982
1.54318E-6	-43.660268
1.543225E-6	-43.832095
1.54327E-6	-43.92545
1.543315E-6	-43.987007
1.54336E-6	-43.955579
1.543405E-6	-43.95882
1.54345E-6	-43.962063
1.543495E-6	-43.935111
1.54354E-6	-43.859469
1.543585E-6	-43.664306
1.54363E-6	-43.490129
1.543675E-6	-43.452461
1.54372E-6	-43.430398
1.543765E-6	-43.457272
1.54381E-6	-43.451499
1.543855E-6	-43.459198
1.5439E-6	-43.482376
1.543945E-6	-43.59618
1.54399E-6	-43.810111
1.544035E-6	-44.009908
1.54408E-6	-44.043936
1.544125E-6	-44.03293
1.54417E-6	-44.03953
1.544215E-6	-44.052761
1.54426E-6	-44.070464
1.544305E-6	-44.050553
1.54435E-6	-43.921163
1.544395E-6	-43.697756
1.54444E-6	-43.537924
1.544485E-6	-43.498868
1.54453E-6	-43.522259
1.544575E-6	-43.534982
1.54462E-6	-43.551677
1.544665E-6	-43.54676
1.54471E-6	-43.576344
1.544755E-6	-43.769576
1.5448E-6	-43.990271
1.544845E-6	-44.098272
1.54489E-6	-44.125135
1.544935E-6	-44.137504
1.54498E-6	-44.117283
1.545025E-6	-44.017568
1.54507E-6	-43.429441
1.545115E-6	-37.061956
1.54516E-6	-25.939711
1.545205E-6	-20.549255
1.54525E-6	-18.291518
1.545295E-6	-17.746907
1.54534E-6	-17.687854
1.545385E-6	-17.652297
1.54543E-6	-17.664962
1.545475E-6	-18.024438
1.54552E-6	-19.965395
1.545565E-6	-24.835969
1.54561E-6	-33.951262
1.545655E-6	-41.368557
1.5457E-6	-43.578324
1.545745E-6	-44.05497
1.54579E-6	-44.169146
1.545835E-6	-44.196453
1.54588E-6	-44.203307
1.545925E-6	-44.125135
1.54597E-6	-43.924378
1.546015E-6	-43.747905
1.54606E-6	-43.675427
1.546105E-6	-43.664306
1.54615E-6	-43.680492
1.546195E-6	-43.670368
1.54624E-6	-43.661277
1.546285E-6	-43.682519
1.54633E-6	-43.797598
1.546375E-6	-44.011001
1.54642E-6	-44.185055
1.546465E-6	-44.240044
1.54651E-6	-44.255057
1.546555E-6	-44.258529
1.5466E-6	-44.281748
1.546645E-6	-44.285241
1.54669E-6	-44.258529
1.546735E-6	-44.140883
1.54678E-6	-43.923306
1.546825E-6	-43.77786
1.54687E-6	-43.7202
1.546915E-6	-43.727366
1.54696E-6	-43.717133
1.547005E-6	-43.709984
1.54705E-6	-43.72327
1.547095E-6	-43.759243
1.54714E-6	-43.902989
1.547185E-6	-44.128505
1.54723E-6	-44.266642
1.547275E-6	-44.294571
1.54732E-6	-44.309774
1.547365E-6	-44.312118
1.54741E-6	-44.319157
1.547455E-6	-44.312118
1.5475E-6	-44.275931
1.547545E-6	-44.120647
1.54759E-6	-43.915809
1.547635E-6	-43.793435
1.54768E-6	-43.755116
1.547725E-6	-43.741733
1.54777E-6	-43.741733
1.547815E-6	-43.743789
1.54786E-6	-43.76234
1.547905E-6	-43.820566
1.54795E-6	-43.992449
1.547995E-6	-44.188471
1.54804E-6	-44.319157
1.548085E-6	-44.333269
1.54813E-6	-44.352156
1.548175E-6	-44.365189
1.54822E-6	-44.365189
1.548265E-6	-44.340342
1.54831E-6	-44.288737
1.548355E-6	-44.119525
1.5484E-6	-43.91474
1.548445E-6	-43.816381
1.54849E-6	-43.77786
1.548535E-6	-43.77268
1.54858E-6	-43.768541
1.548625E-6	-43.768541
1.54867E-6	-43.794476
1.548715E-6	-43.861582
1.54876E-6	-44.052761
1.548805E-6	-44.245812
1.54885E-6	-44.335625
1.548895E-6	-44.366376
1.54894E-6	-44.381833
1.548985E-6	-44.380642
1.54903E-6	-44.375882
1.549075E-6	-44.358075
1.54912E-6	-44.273607
1.549165E-6	-44.082678
1.54921E-6	-43.882767
1.549255E-6	-43.80385
1.5493E-6	-43.788237
1.549345E-6	-43.755116
1.54939E-6	-43.77786
1.549435E-6	-43.778896
1.54948E-6	-43.790316
1.549525E-6	-43.896593
1.54957E-6	-44.098272
1.549615E-6	-44.281748
1.54966E-6	-44.35926
1.549705E-6	-44.364003
1.54975E-6	-44.361631
1.549795E-6	-44.314463
1.54984E-6	-44.093811
1.549885E-6	-42.669633
1.54993E-6	-31.623484
1.549975E-6	-22.708352
1.55002E-6	-19.086848
1.550065E-6	-17.870138
1.55011E-6	-17.662426
1.550155E-6	-17.609509
1.5502E-6	-17.632109
1.550245E-6	-17.6675
1.55029E-6	-18.422411
1.550335E-6	-21.296546
1.55038E-6	-28.002448
1.550425E-6	-38.173001
1.55047E-6	-42.790143
1.550515E-6	-44.013189
1.55056E-6	-44.255057
1.550605E-6	-44.302751
1.55065E-6	-44.323856
1.550695E-6	-44.316809
1.55074E-6	-44.188471
1.550785E-6	-43.957739
1.55083E-6	-43.798639
1.550875E-6	-43.736596
1.55092E-6	-43.722246
1.550965E-6	-43.732491
1.55101E-6	-43.729415
1.551055E-6	-43.721223
1.5511E-6	-43.750994
1.551145E-6	-43.901922
1.55119E-6	-44.134127
1.551235E-6	-44.29107
1.55128E-6	-44.334447
1.551325E-6	-44.339162
1.55137E-6	-44.327383
1.551415E-6	-44.320331
1.55146E-6	-44.325031
1.551505E-6	-44.29107
1.55155E-6	-44.135252
1.551595E-6	-43.87428
1.55164E-6	-43.72327
1.551685E-6	-43.682519
1.55173E-6	-43.682519
1.551775E-6	-43.689623
1.55182E-6	-43.687592
1.551865E-6	-43.67644
1.55191E-6	-43.717133
1.551955E-6	-43.885954
1.552E-6	-44.146521
1.552045E-6	-44.287571
1.55209E-6	-44.309774
1.552135E-6	-44.319157
1.55218E-6	-44.295738
1.552225E-6	-44.307432
1.55227E-6	-44.301581
1.552315E-6	-44.257372
1.55236E-6	-44.047243
1.552405E-6	-43.802807
1.55245E-6	-43.678465
1.552495E-6	-43.641143
1.55254E-6	-43.653212
1.552585E-6	-43.655227
1.55263E-6	-43.645163
1.552675E-6	-43.639135
1.55272E-6	-43.704885
1.552765E-6	-43.907258
1.55281E-6	-44.152166
1.552855E-6	-44.264322
1.5529E-6	-44.278257
1.552945E-6	-44.271284
1.55299E-6	-44.275931
1.553035E-6	-44.284076
1.55308E-6	-44.282912
1.553125E-6	-44.20445
1.55317E-6	-43.966391
1.553215E-6	-43.739678
1.55326E-6	-43.645163
1.553305E-6	-43.620102
1.55335E-6	-43.626103
1.553395E-6	-43.611116
1.55344E-6	-43.601153
1.553485E-6	-43.608124
1.55353E-6	-43.685562
1.553575E-6	-43.921163
1.55362E-6	-44.143137
1.553665E-6	-44.250432
1.55371E-6	-44.267802
1.553755E-6	-44.265482
1.5538E-6	-44.273607
1.553845E-6	-44.280584
1.55389E-6	-44.263163
1.553935E-6	-44.162346
1.55398E-6	-43.920091
1.554025E-6	-43.704885
1.55407E-6	-43.611116
1.554115E-6	-43.591212
1.55416E-6	-43.565473
1.554205E-6	-43.574366
1.55425E-6	-43.565473
1.554295E-6	-43.56646
1.55434E-6	-43.685562
1.554385E-6	-43.928668
1.55443E-6	-44.149907
1.554475E-6	-44.241197
1.55452E-6	-44.257372
1.554565E-6	-44.255057
1.55461E-6	-44.273607
1.554655E-6	-44.273607
1.5547E-6	-44.259687
1.554745E-6	-44.135252
1.55479E-6	-43.876401
1.554835E-6	-43.660268
1.55488E-6	-43.581295
1.554925E-6	-43.553645
1.55497E-6	-43.536943
1.555015E-6	-43.532043
1.55506E-6	-43.517376
1.555105E-6	-43.557584
1.55515E-6	-43.683533
1.555195E-6	-43.930815
1.55524E-6	-44.146521
1.555285E-6	-44.221637
1.55533E-6	-44.240044
1.555375E-6	-44.251588
1.55542E-6	-44.256214
1.555465E-6	-44.241197
1.55551E-6	-44.223933
1.555555E-6	-44.093811
1.5556E-6	-43.838397
1.555645E-6	-43.622102
1.55569E-6	-43.553645
1.555735E-6	-43.531064
1.55578E-6	-43.523237
1.555825E-6	-43.512498
1.55587E-6	-43.522259
1.555915E-6	-43.549709
1.55596E-6	-43.678465
1.556005E-6	-43.930815
1.55605E-6	-44.146521
1.556095E-6	-44.22968
1.55614E-6	-44.245812
1.556185E-6	-44.256214
1.55623E-6	-44.24235
1.556275E-6	-44.240044
1.55632E-6	-44.2159
1.556365E-6	-44.099388
1.55641E-6	-43.844708
1.556455E-6	-43.619103
1.5565E-6	-43.533023
1.556545E-6	-43.508599
1.55659E-6	-43.503731
1.556635E-6	-43.505678
1.55668E-6	-43.514448
1.556725E-6	-43.541849
1.55677E-6	-43.672391
1.556815E-6	-43.932963
1.55686E-6	-44.160082
1.556905E-6	-44.22968
1.55695E-6	-44.256214
1.556995E-6	-44.262004
1.55704E-6	-44.248122
1.557085E-6	-44.251588
1.55713E-6	-44.213608
1.557175E-6	-44.099388
1.55722E-6	-43.819519
1.557265E-6	-43.618104
1.55731E-6	-43.543813
1.557355E-6	-43.512498
1.5574E-6	-43.525192
1.557445E-6	-43.527149
1.55749E-6	-43.541849
1.557535E-6	-43.561527
1.55758E-6	-43.696738
1.557625E-6	-43.970723
1.55767E-6	-44.174821
1.557715E-6	-44.263163
1.55776E-6	-44.287571
1.557805E-6	-44.27942
1.55785E-6	-44.273607
1.557895E-6	-44.267802
1.55794E-6	-44.256214
1.557985E-6	-44.113922
1.55803E-6	-43.838397
1.558075E-6	-43.635121
1.55812E-6	-43.562513
1.558165E-6	-43.537924
1.55821E-6	-43.556599
1.558255E-6	-43.560541
1.5583E-6	-43.5635
1.558345E-6	-43.59618
1.55839E-6	-43.73044
1.558435E-6	-44.002261
1.55848E-6	-44.221637
1.558525E-6	-44.306261
1.55857E-6	-44.315636
1.558615E-6	-44.308603
1.55866E-6	-44.299243
1.558705E-6	-44.30392
1.55875E-6	-44.295738
1.558795E-6	-44.154426
1.55884E-6	-43.888079
1.558885E-6	-43.683533
1.55893E-6	-43.627105
1.558975E-6	-43.622102
1.55902E-6	-43.634118
1.559065E-6	-43.634118
1.55911E-6	-43.631111
1.559155E-6	-43.653212
1.5592E-6	-43.799681
1.559245E-6	-44.06271
1.55929E-6	-44.281748
1.559335E-6	-44.362817
1.55938E-6	-44.356891
1.559425E-6	-44.355707
1.55947E-6	-44.361631
1.559515E-6	-44.387793
1.55956E-6	-44.364003
1.559605E-6	-44.223933
1.55965E-6	-43.970723
1.559695E-6	-43.771645
1.55974E-6	-43.706924
1.559785E-6	-43.711004
1.55983E-6	-43.716111
1.559875E-6	-43.716111
1.55992E-6	-43.716111
1.559965E-6	-43.752024
1.56001E-6	-43.878522
1.560055E-6	-44.139756
1.5601E-6	-44.360445
1.560145E-6	-44.42132
1.56019E-6	-44.423725
1.560235E-6	-44.427335
1.56028E-6	-44.447846
1.560325E-6	-44.452686
1.56037E-6	-44.436975
1.560415E-6	-44.300412
1.56046E-6	-44.040631
1.560505E-6	-43.867926
1.56055E-6	-43.799681
1.560595E-6	-43.811155
1.56064E-6	-43.820566
1.560685E-6	-43.810111
1.56073E-6	-43.819519
1.560775E-6	-43.838397
1.56082E-6	-43.977229
1.560865E-6	-44.222785
1.56091E-6	-44.42132
1.560955E-6	-44.479405
1.561E-6	-44.475752
1.561045E-6	-44.494048
1.56109E-6	-44.502613
1.561135E-6	-44.501388
1.56118E-6	-44.494048
1.561225E-6	-44.374692
1.56127E-6	-44.143137
1.561315E-6	-43.975059
1.56136E-6	-43.909395
1.561405E-6	-43.919021
1.56145E-6	-43.922234
1.561495E-6	-43.921163
1.56154E-6	-43.923306
1.561585E-6	-43.944795
1.56163E-6	-44.064924
1.561675E-6	-44.27942
1.56172E-6	-44.46724
1.561765E-6	-44.519793
1.56181E-6	-44.535807
1.561855E-6	-44.546929
1.5619E-6	-44.554359
1.561945E-6	-44.563044
1.56199E-6	-44.540747
1.562035E-6	-44.446637
1.56208E-6	-44.250432
1.562125E-6	-44.081566
1.56217E-6	-44.021952
1.562215E-6	-44.009908
1.56226E-6	-44.004444
1.562305E-6	-44.002261
1.56235E-6	-44.005536
1.562395E-6	-44.021952
1.56244E-6	-44.118404
1.562485E-6	-44.309774
1.56253E-6	-44.48428
1.562575E-6	-44.555599
1.56262E-6	-44.576726
1.562665E-6	-44.589202
1.56271E-6	-44.597957
1.562755E-6	-44.606729
1.5628E-6	-44.584208
1.562845E-6	-44.517335
1.56289E-6	-44.330913
1.562935E-6	-44.174821
1.56298E-6	-44.110564
1.563025E-6	-44.089354
1.56307E-6	-44.08379
1.563115E-6	-44.089354
1.56316E-6	-44.100504
1.563205E-6	-44.113922
1.56325E-6	-44.17823
1.563295E-6	-44.349791
1.56334E-6	-44.518564
1.563385E-6	-44.592952
1.56343E-6	-44.628108
