Wavelength (nm)	Power (dBm)
1.525E-6	-47.744323
1.525045E-6	-47.654827
1.52509E-6	-47.562181
1.525135E-6	-47.498241
1.52518E-6	-47.432823
1.525225E-6	-47.340036
1.52527E-6	-47.249191
1.525315E-6	-47.157949
1.52536E-6	-47.068585
1.525405E-6	-46.981023
1.52545E-6	-46.863437
1.525495E-6	-46.722325
1.52554E-6	-46.569855
1.525585E-6	-46.441655
1.52563E-6	-46.33577
1.525675E-6	-46.232406
1.52572E-6	-46.111886
1.525765E-6	-46.046736
1.52581E-6	-45.955084
1.525855E-6	-45.939711
1.5259E-6	-45.912514
1.525945E-6	-45.938006
1.52599E-6	-45.892228
1.526035E-6	-45.825283
1.52608E-6	-45.782316
1.526125E-6	-45.652715
1.52617E-6	-45.601938
1.526215E-6	-45.526869
1.52626E-6	-45.395532
1.526305E-6	-45.221555
1.52635E-6	-45.041782
1.526395E-6	-44.963455
1.52644E-6	-44.835969
1.526485E-6	-44.808285
1.52653E-6	-44.753443
1.526575E-6	-44.687766
1.52662E-6	-44.643262
1.526665E-6	-44.692882
1.52671E-6	-44.797786
1.526755E-6	-44.838614
1.5268E-6	-44.784697
1.526845E-6	-44.753443
1.52689E-6	-44.691602
1.526935E-6	-44.614263
1.52698E-6	-44.555599
1.527025E-6	-44.46724
1.52707E-6	-44.234283
1.527115E-6	-44.041732
1.52716E-6	-43.921163
1.527205E-6	-43.867926
1.52725E-6	-43.810111
1.527295E-6	-43.759243
1.52734E-6	-43.715089
1.527385E-6	-43.749964
1.52743E-6	-43.818473
1.527475E-6	-43.969639
1.52752E-6	-44.090468
1.527565E-6	-44.092696
1.52761E-6	-44.126258
1.527655E-6	-44.05718
1.5277E-6	-44.021952
1.527745E-6	-43.997897
1.52779E-6	-43.928668
1.527835E-6	-43.690639
1.52788E-6	-43.421795
1.527925E-6	-43.268869
1.52797E-6	-43.196645
1.528015E-6	-43.200273
1.52806E-6	-43.179452
1.528105E-6	-43.164127
1.52815E-6	-43.150649
1.528195E-6	-43.2468
1.52824E-6	-43.458235
1.528285E-6	-43.687592
1.52833E-6	-43.768541
1.528375E-6	-43.76544
1.52842E-6	-43.73044
1.528465E-6	-43.729415
1.52851E-6	-43.703866
1.528555E-6	-43.666326
1.5286E-6	-43.475603
1.528645E-6	-43.186683
1.52869E-6	-42.977418
1.528735E-6	-42.906452
1.52878E-6	-42.898826
1.528825E-6	-42.870979
1.52887E-6	-42.901367
1.528915E-6	-42.85838
1.52896E-6	-42.960212
1.529005E-6	-43.198459
1.52905E-6	-43.454384
1.529095E-6	-43.608124
1.52914E-6	-43.606131
1.529185E-6	-43.59618
1.52923E-6	-43.59618
1.529275E-6	-43.580304
1.52932E-6	-43.589227
1.529365E-6	-43.438059
1.52941E-6	-43.144374
1.529455E-6	-42.88699
1.5295E-6	-42.821631
1.529545E-6	-42.82829
1.52959E-6	-42.783542
1.529635E-6	-42.807516
1.52968E-6	-42.803373
1.529725E-6	-42.834124
1.52977E-6	-43.035562
1.529815E-6	-43.332013
1.52986E-6	-43.534982
1.529905E-6	-43.599163
1.52995E-6	-43.579314
1.529995E-6	-43.589227
1.53004E-6	-43.594192
1.530085E-6	-43.586251
1.53013E-6	-43.538905
1.530175E-6	-43.275327
1.53022E-6	-42.999023
1.530265E-6	-42.82829
1.53031E-6	-42.806687
1.530355E-6	-42.830789
1.5304E-6	-42.862575
1.530445E-6	-42.812493
1.53049E-6	-42.824127
1.530535E-6	-42.975695
1.53058E-6	-43.279021
1.530625E-6	-43.530085
1.53067E-6	-43.622102
1.530715E-6	-43.637127
1.53076E-6	-43.658251
1.530805E-6	-43.682519
1.53085E-6	-43.652205
1.530895E-6	-43.643152
1.53094E-6	-43.459198
1.530985E-6	-43.162327
1.53103E-6	-42.955921
1.531075E-6	-42.899673
1.53112E-6	-42.936236
1.531165E-6	-42.910695
1.53121E-6	-42.896287
1.531255E-6	-42.905604
1.5313E-6	-43.00249
1.531345E-6	-43.263341
1.53139E-6	-43.583276
1.531435E-6	-43.706924
1.53148E-6	-43.773716
1.531525E-6	-43.792395
1.53157E-6	-43.789276
1.531615E-6	-43.795516
1.53166E-6	-43.793435
1.531705E-6	-43.65926
1.53175E-6	-43.41321
1.531795E-6	-43.155137
1.53184E-6	-43.068889
1.531885E-6	-43.058337
1.53193E-6	-43.060973
1.531975E-6	-43.060973
1.53202E-6	-43.082998
1.532065E-6	-43.138108
1.53211E-6	-43.351701
1.532155E-6	-43.690639
1.5322E-6	-43.89979
1.532245E-6	-43.973975
1.53229E-6	-43.987007
1.532335E-6	-44.016473
1.53238E-6	-44.047243
1.532425E-6	-44.056074
1.53247E-6	-43.982659
1.532515E-6	-43.77061
1.53256E-6	-43.496925
1.532605E-6	-43.34044
1.53265E-6	-43.346066
1.532695E-6	-43.34044
1.53274E-6	-43.336693
1.532785E-6	-43.347005
1.53283E-6	-43.380927
1.532875E-6	-43.537924
1.53292E-6	-43.855246
1.532965E-6	-44.170281
1.53301E-6	-44.282912
1.533055E-6	-44.341522
1.5331E-6	-44.348608
1.533145E-6	-44.365189
1.53319E-6	-44.372315
1.533235E-6	-44.379452
1.53328E-6	-44.217047
1.533325E-6	-43.95342
1.53337E-6	-43.732491
1.533415E-6	-43.699791
1.53346E-6	-43.722246
1.533505E-6	-43.719177
1.53355E-6	-43.758211
1.533595E-6	-43.797598
1.53364E-6	-43.866868
1.533685E-6	-44.101621
1.53373E-6	-44.451476
1.533775E-6	-44.659739
1.53382E-6	-44.727569
1.533865E-6	-44.80172
1.53391E-6	-44.803032
1.533955E-6	-44.816177
1.534E-6	-44.842586
1.534045E-6	-44.788619
1.53409E-6	-44.560561
1.534135E-6	-44.312118
1.53418E-6	-44.20445
1.534225E-6	-44.182778
1.53427E-6	-44.193031
1.534315E-6	-44.236586
1.53436E-6	-44.260846
1.534405E-6	-44.310946
1.53445E-6	-44.481842
1.534495E-6	-44.77295
1.53454E-6	-45.058454
1.534585E-6	-45.207127
1.53463E-6	-45.237482
1.534675E-6	-45.272436
1.53472E-6	-45.298836
1.534765E-6	-45.353614
1.53481E-6	-45.320961
1.534855E-6	-45.152732
1.5349E-6	-44.898573
1.534945E-6	-44.753443
1.53499E-6	-44.685211
1.535035E-6	-44.700566
1.53508E-6	-44.759936
1.535125E-6	-44.782084
1.53517E-6	-44.816177
1.535215E-6	-44.898573
1.53526E-6	-45.127202
1.535305E-6	-45.466817
1.53535E-6	-45.689581
1.535395E-6	-45.743028
1.53544E-6	-45.783961
1.535485E-6	-45.762628
1.53553E-6	-45.818645
1.535575E-6	-45.821963
1.53562E-6	-45.774102
1.535665E-6	-45.536182
1.53571E-6	-45.28855
1.535755E-6	-45.195619
1.5358E-6	-45.194182
1.535845E-6	-45.201369
1.53589E-6	-45.250557
1.535935E-6	-45.263671
1.53598E-6	-45.303252
1.536025E-6	-45.468346
1.53607E-6	-45.760991
1.536115E-6	-46.048484
1.53616E-6	-46.149302
1.536205E-6	-46.17983
1.53625E-6	-46.185239
1.536295E-6	-46.217839
1.53634E-6	-46.258017
1.536385E-6	-46.237881
1.53643E-6	-46.06074
1.536475E-6	-45.795491
1.53652E-6	-45.612995
1.536565E-6	-45.559552
1.53661E-6	-45.553308
1.536655E-6	-45.590909
1.5367E-6	-45.611413
1.536745E-6	-45.630427
1.53679E-6	-45.707323
1.536835E-6	-45.948245
1.53688E-6	-46.26904
1.536925E-6	-46.422557
1.53697E-6	-46.493644
1.537015E-6	-46.520848
1.53706E-6	-46.511113
1.537105E-6	-46.548224
1.53715E-6	-46.534514
1.537195E-6	-46.480105
1.53724E-6	-46.212388
1.537285E-6	-45.924392
1.53733E-6	-45.820304
1.537375E-6	-45.825283
1.53742E-6	-45.816987
1.537465E-6	-45.813673
1.53751E-6	-45.830268
1.537555E-6	-45.846927
1.5376E-6	-46.018863
1.537645E-6	-46.328305
1.53769E-6	-46.583677
1.537735E-6	-46.679657
1.53778E-6	-46.677636
1.537825E-6	-46.695862
1.53787E-6	-46.716204
1.537915E-6	-46.722325
1.53796E-6	-46.710091
1.538005E-6	-46.499459
1.53805E-6	-46.201508
1.538095E-6	-45.963648
1.53814E-6	-45.922693
1.538185E-6	-45.932895
1.53823E-6	-45.929492
1.538275E-6	-45.931193
1.53832E-6	-45.912514
1.538365E-6	-45.984272
1.53841E-6	-46.226937
1.538455E-6	-46.540385
1.5385E-6	-46.722325
1.538545E-6	-46.746896
1.53859E-6	-46.757175
1.538635E-6	-46.773673
1.53868E-6	-46.784016
1.538725E-6	-46.761294
1.53877E-6	-46.675615
1.538815E-6	-46.399749
1.53886E-6	-46.111886
1.538905E-6	-45.979106
1.53895E-6	-45.927791
1.538995E-6	-45.909126
1.53904E-6	-45.905741
1.539085E-6	-45.895602
1.53913E-6	-45.922693
1.539175E-6	-46.039751
1.53922E-6	-46.362001
1.539265E-6	-46.617428
1.53931E-6	-46.728455
1.539355E-6	-46.767479
1.5394E-6	-46.771607
1.539445E-6	-46.757175
1.53949E-6	-46.759234
1.539535E-6	-46.718243
1.53958E-6	-46.501399
1.539625E-6	-46.183435
1.53967E-6	-45.943122
1.539715E-6	-45.878756
1.53976E-6	-45.825283
1.539805E-6	-45.831931
1.53985E-6	-45.828606
1.539895E-6	-45.828606
1.53994E-6	-45.892228
1.539985E-6	-46.103025
1.54003E-6	-46.430186
1.540075E-6	-46.607474
1.54012E-6	-46.671577
1.540165E-6	-46.683703
1.54021E-6	-46.66956
1.540255E-6	-46.655462
1.5403E-6	-46.665527
1.540345E-6	-46.554113
1.54039E-6	-46.287474
1.540435E-6	-45.949953
1.54048E-6	-45.792194
1.540525E-6	-45.741399
1.54057E-6	-45.710557
1.540615E-6	-45.697636
1.54066E-6	-45.721894
1.540705E-6	-45.726762
1.54075E-6	-45.828606
1.540795E-6	-46.115435
1.54084E-6	-46.420652
1.540885E-6	-46.571827
1.54093E-6	-46.5738
1.540975E-6	-46.607474
1.54102E-6	-46.567884
1.541065E-6	-46.550186
1.54111E-6	-46.5267
1.541155E-6	-46.343249
1.5412E-6	-46.03452
1.541245E-6	-45.741399
1.54129E-6	-45.649524
1.541335E-6	-45.598784
1.54138E-6	-45.575202
1.541425E-6	-45.57677
1.54147E-6	-45.587763
1.541515E-6	-45.612995
1.54156E-6	-45.800443
1.541605E-6	-46.13501
1.54165E-6	-46.395959
1.541695E-6	-46.482037
1.54174E-6	-46.49752
1.541785E-6	-46.470461
1.54183E-6	-46.456994
1.541875E-6	-46.464684
1.54192E-6	-46.401645
1.541965E-6	-46.154674
1.54201E-6	-45.798792
1.542055E-6	-45.55799
1.5421E-6	-45.523769
1.542145E-6	-45.477534
1.54219E-6	-45.486742
1.542235E-6	-45.488278
1.54228E-6	-45.497509
1.542325E-6	-45.56737
1.54237E-6	-45.826944
1.542415E-6	-46.167233
1.54246E-6	-46.35074
1.542505E-6	-46.409238
1.54255E-6	-46.413039
1.542595E-6	-46.369524
1.54264E-6	-46.3865
1.542685E-6	-46.371407
1.54273E-6	-46.261689
1.542775E-6	-45.927791
1.54282E-6	-45.611413
1.542865E-6	-45.460704
1.54291E-6	-45.431787
1.542955E-6	-45.434821
1.543E-6	-45.434821
1.543045E-6	-45.431787
1.54309E-6	-45.434821
1.543135E-6	-45.579908
1.54318E-6	-45.912514
1.543225E-6	-46.245193
1.54327E-6	-46.332036
1.543315E-6	-46.369524
1.54336E-6	-46.34512
1.543405E-6	-46.333903
1.54345E-6	-46.377061
1.543495E-6	-46.339508
1.54354E-6	-46.149302
1.543585E-6	-45.793842
1.54363E-6	-45.52222
1.543675E-6	-45.431787
1.54372E-6	-45.43634
1.543765E-6	-45.427238
1.54381E-6	-45.418156
1.543855E-6	-45.427238
1.5439E-6	-45.448505
1.543945E-6	-45.683147
1.54399E-6	-46.048484
1.544035E-6	-46.278247
1.54408E-6	-46.34512
1.544125E-6	-46.358244
1.54417E-6	-46.36388
1.544215E-6	-46.377061
1.54426E-6	-46.394066
1.544305E-6	-46.317131
1.54435E-6	-46.031036
1.544395E-6	-45.67191
1.54444E-6	-45.474469
1.544485E-6	-45.43634
1.54453E-6	-45.427238
1.544575E-6	-45.43634
1.54462E-6	-45.43027
1.544665E-6	-45.428754
1.54471E-6	-45.529971
1.544755E-6	-45.812017
1.5448E-6	-46.178028
1.544845E-6	-46.339508
1.54489E-6	-46.373291
1.544935E-6	-46.36388
1.54498E-6	-46.337639
1.545025E-6	-46.115435
1.54507E-6	-44.983931
1.545115E-6	-36.216021
1.54516E-6	-25.174122
1.545205E-6	-20.074023
1.54525E-6	-17.961515
1.545295E-6	-17.520267
1.54534E-6	-17.454519
1.545385E-6	-17.413627
1.54543E-6	-17.449688
1.545475E-6	-17.851562
1.54552E-6	-19.991323
1.545565E-6	-25.005879
1.54561E-6	-34.714689
1.545655E-6	-42.568824
1.5457E-6	-45.486742
1.545745E-6	-46.205132
1.54579E-6	-46.362001
1.545835E-6	-46.401645
1.54588E-6	-46.399749
1.545925E-6	-46.256183
1.54597E-6	-45.9176
1.546015E-6	-45.619325
1.54606E-6	-45.514483
1.546105E-6	-45.502132
1.54615E-6	-45.497509
1.546195E-6	-45.479068
1.54624E-6	-45.488278
1.546285E-6	-45.531523
1.54633E-6	-45.726762
1.546375E-6	-46.067759
1.54642E-6	-46.352614
1.546465E-6	-46.441655
1.54651E-6	-46.468535
1.546555E-6	-46.485902
1.5466E-6	-46.495581
1.546645E-6	-46.485902
1.54669E-6	-46.437829
1.546735E-6	-46.22876
1.54678E-6	-45.867002
1.546825E-6	-45.625666
1.54687E-6	-45.553308
1.546915E-6	-45.540846
1.54696E-6	-45.533075
1.547005E-6	-45.539291
1.54705E-6	-45.54863
1.547095E-6	-45.619325
1.54714E-6	-45.851937
1.547185E-6	-46.206945
1.54723E-6	-46.435917
1.547275E-6	-46.511113
1.54732E-6	-46.524748
1.547365E-6	-46.524748
1.54741E-6	-46.530605
1.547455E-6	-46.530605
1.5475E-6	-46.453154
1.547545E-6	-46.174427
1.54759E-6	-45.825283
1.547635E-6	-45.625666
1.54768E-6	-45.561115
1.547725E-6	-45.556429
1.54777E-6	-45.553308
1.547815E-6	-45.568935
1.54786E-6	-45.594057
1.547905E-6	-45.686362
1.54795E-6	-45.965363
1.547995E-6	-46.326441
1.54804E-6	-46.511113
1.548085E-6	-46.561977
1.54813E-6	-46.579723
1.548175E-6	-46.585655
1.54822E-6	-46.569855
1.548265E-6	-46.558043
1.54831E-6	-46.447401
1.548355E-6	-46.136794
1.5484E-6	-45.805399
1.548445E-6	-45.641556
1.54849E-6	-45.595632
1.548535E-6	-45.595632
1.54858E-6	-45.598784
1.548625E-6	-45.609833
1.54867E-6	-45.632015
1.548715E-6	-45.752817
1.54876E-6	-46.080069
1.548805E-6	-46.40544
1.54885E-6	-46.569855
1.548895E-6	-46.615435
1.54894E-6	-46.617428
1.548985E-6	-46.595559
1.54903E-6	-46.597542
1.549075E-6	-46.579723
1.54912E-6	-46.42637
1.549165E-6	-46.080069
1.54921E-6	-45.765903
1.549255E-6	-45.636783
1.5493E-6	-45.606673
1.549345E-6	-45.605094
1.54939E-6	-45.619325
1.549435E-6	-45.614577
1.54948E-6	-45.641556
1.549525E-6	-45.800443
1.54957E-6	-46.151092
1.549615E-6	-46.476245
1.54966E-6	-46.587634
1.549705E-6	-46.595559
1.54975E-6	-46.581699
1.549795E-6	-46.50334
1.54984E-6	-46.053732
1.549885E-6	-43.686577
1.54993E-6	-30.609303
1.549975E-6	-22.210533
1.55002E-6	-18.674202
1.550065E-6	-17.579558
1.55011E-6	-17.384992
1.550155E-6	-17.387371
1.5502E-6	-17.354183
1.550245E-6	-17.401673
1.55029E-6	-18.244882
1.550335E-6	-21.226863
1.55038E-6	-28.317973
1.550425E-6	-38.794261
1.55047E-6	-44.241197
1.550515E-6	-46.062494
1.55056E-6	-46.449318
1.550605E-6	-46.540385
1.55065E-6	-46.563945
1.550695E-6	-46.528652
1.55074E-6	-46.274562
1.550785E-6	-45.90405
1.55083E-6	-45.641556
1.550875E-6	-45.572068
1.55092E-6	-45.550189
1.550965E-6	-45.565805
1.55101E-6	-45.542402
1.551055E-6	-45.545515
1.5511E-6	-45.606673
1.551145E-6	-45.873715
1.55119E-6	-46.274562
1.551235E-6	-46.509168
1.55128E-6	-46.5738
1.551325E-6	-46.577748
1.55137E-6	-46.556077
1.551415E-6	-46.561977
1.55146E-6	-46.563945
1.551505E-6	-46.489771
1.55155E-6	-46.181632
1.551595E-6	-45.777385
1.55164E-6	-45.556429
1.551685E-6	-45.503673
1.55173E-6	-45.50059
1.551775E-6	-45.49443
1.55182E-6	-45.474469
1.551865E-6	-45.477534
1.55191E-6	-45.561115
1.551955E-6	-45.885487
1.552E-6	-46.285627
1.552045E-6	-46.49752
1.55209E-6	-46.538427
1.552135E-6	-46.53647
1.55218E-6	-46.532559
1.552225E-6	-46.550186
1.55227E-6	-46.53647
1.552315E-6	-46.407338
1.55236E-6	-46.057235
1.552405E-6	-45.667103
1.55245E-6	-45.471407
1.552495E-6	-45.443939
1.55254E-6	-45.44546
1.552585E-6	-45.43027
1.55263E-6	-45.409092
1.552675E-6	-45.421181
1.55272E-6	-45.542402
1.552765E-6	-45.890541
1.55281E-6	-46.280091
1.552855E-6	-46.447401
1.5529E-6	-46.480105
1.552945E-6	-46.487837
1.55299E-6	-46.495581
1.553035E-6	-46.499459
1.55308E-6	-46.472388
1.553125E-6	-46.318991
1.55317E-6	-45.932895
1.553215E-6	-45.559552
1.55326E-6	-45.421181
1.553305E-6	-45.380515
1.55335E-6	-45.362563
1.553395E-6	-45.337257
1.55344E-6	-45.335773
1.553485E-6	-45.362563
1.55353E-6	-45.520671
1.553575E-6	-45.89729
1.55362E-6	-46.259853
1.553665E-6	-46.420652
1.55371E-6	-46.443569
1.553755E-6	-46.468535
1.5538E-6	-46.462761
1.553845E-6	-46.458916
1.55389E-6	-46.42637
1.553935E-6	-46.239708
1.55398E-6	-45.833595
1.554025E-6	-45.485206
1.55407E-6	-45.338741
1.554115E-6	-45.298836
1.55416E-6	-45.285616
1.554205E-6	-45.275361
1.55425E-6	-45.273898
1.554295E-6	-45.313573
1.55434E-6	-45.489815
1.554385E-6	-45.877075
1.55443E-6	-46.239708
1.554475E-6	-46.38839
1.55452E-6	-46.413039
1.554565E-6	-46.42637
1.55461E-6	-46.414941
1.554655E-6	-46.409238
1.5547E-6	-46.375175
1.554745E-6	-46.160052
1.55479E-6	-45.738142
1.554835E-6	-45.398542
1.55488E-6	-45.254924
1.554925E-6	-45.230235
1.55497E-6	-45.212892
1.555015E-6	-45.207127
1.55506E-6	-45.223001
1.555105E-6	-45.259295
1.55515E-6	-45.453076
1.555195E-6	-45.868679
1.55524E-6	-46.221476
1.555285E-6	-46.35449
1.55533E-6	-46.397854
1.555375E-6	-46.390281
1.55542E-6	-46.3865
1.555465E-6	-46.3865
1.55551E-6	-46.33577
1.555555E-6	-46.104795
1.5556E-6	-45.679933
1.555645E-6	-45.340226
1.55569E-6	-45.212892
1.555735E-6	-45.184141
1.55578E-6	-45.185574
1.555825E-6	-45.178413
1.55587E-6	-45.191311
1.555915E-6	-45.22734
1.55596E-6	-45.442418
1.556005E-6	-45.867002
1.55605E-6	-46.226937
1.556095E-6	-46.35449
1.55614E-6	-46.377061
1.556185E-6	-46.377061
1.55623E-6	-46.371407
1.556275E-6	-46.356366
1.55632E-6	-46.33017
1.556365E-6	-46.083593
1.55641E-6	-45.649524
1.556455E-6	-45.312097
1.5565E-6	-45.192746
1.556545E-6	-45.155578
1.55659E-6	-45.169836
1.556635E-6	-45.179844
1.55668E-6	-45.181276
1.556725E-6	-45.214335
1.55677E-6	-45.443939
1.556815E-6	-45.877075
1.55686E-6	-46.243364
1.556905E-6	-46.367642
1.55695E-6	-46.401645
1.556995E-6	-46.397854
1.55704E-6	-46.38461
1.557085E-6	-46.3865
1.55713E-6	-46.348866
1.557175E-6	-46.094181
1.55722E-6	-45.649524
1.557265E-6	-45.323919
1.55731E-6	-45.207127
1.557355E-6	-45.194182
1.5574E-6	-45.208568
1.557445E-6	-45.22011
1.55749E-6	-45.218666
1.557535E-6	-45.268051
1.55758E-6	-45.497509
1.557625E-6	-45.944829
1.55767E-6	-46.322715
1.557715E-6	-46.439741
1.55776E-6	-46.458916
1.557805E-6	-46.456994
1.55785E-6	-46.451236
1.557895E-6	-46.456994
1.55794E-6	-46.416844
1.557985E-6	-46.158259
1.55803E-6	-45.70894
1.558075E-6	-45.377518
1.55812E-6	-45.281218
1.558165E-6	-45.272436
1.55821E-6	-45.278289
1.558255E-6	-45.291487
1.5583E-6	-45.291487
1.558345E-6	-45.332806
1.55839E-6	-45.595632
1.558435E-6	-46.055483
1.55848E-6	-46.418747
1.558525E-6	-46.532559
1.55857E-6	-46.542343
1.558615E-6	-46.550186
1.55866E-6	-46.554113
1.558705E-6	-46.567884
1.55875E-6	-46.532559
1.558795E-6	-46.272721
1.55884E-6	-45.810362
1.558885E-6	-45.495969
1.55893E-6	-45.410601
1.558975E-6	-45.419668
1.55902E-6	-45.43027
1.559065E-6	-45.433304
1.55911E-6	-45.434821
1.559155E-6	-45.486742
1.5592E-6	-45.752817
1.559245E-6	-46.196078
1.55929E-6	-46.569855
1.559335E-6	-46.679657
1.55938E-6	-46.706021
1.559425E-6	-46.716204
1.55947E-6	-46.726411
1.559515E-6	-46.742791
1.55956E-6	-46.708056
1.559605E-6	-46.441655
1.55965E-6	-46.001533
1.559695E-6	-45.687971
1.55974E-6	-45.595632
1.559785E-6	-45.601938
1.55983E-6	-45.612995
1.559875E-6	-45.630427
1.55992E-6	-45.636783
1.559965E-6	-45.699249
1.56001E-6	-45.968795
1.560055E-6	-46.414941
1.5601E-6	-46.773673
1.560145E-6	-46.888822
1.56019E-6	-46.912222
1.560235E-6	-46.931463
1.56028E-6	-46.946486
1.560325E-6	-46.965879
1.56037E-6	-46.922901
1.560415E-6	-46.675615
1.56046E-6	-46.248853
1.560505E-6	-45.938006
1.56055E-6	-45.867002
1.560595E-6	-45.867002
1.56064E-6	-45.86365
1.560685E-6	-45.875395
1.56073E-6	-45.890541
1.560775E-6	-45.955084
1.56082E-6	-46.210573
1.560865E-6	-46.649435
1.56091E-6	-47.000571
1.560955E-6	-47.13319
1.561E-6	-47.162466
1.561045E-6	-47.191941
1.56109E-6	-47.207895
1.561135E-6	-47.233085
1.56118E-6	-47.196493
1.561225E-6	-46.96372
1.56127E-6	-46.554113
1.561315E-6	-46.259853
1.56136E-6	-46.170829
1.561405E-6	-46.158259
1.56145E-6	-46.167233
1.561495E-6	-46.190655
1.56154E-6	-46.20332
1.561585E-6	-46.278247
1.56163E-6	-46.499459
1.561675E-6	-46.92718
1.56172E-6	-47.276942
1.561765E-6	-47.416022
1.56181E-6	-47.464197
1.561855E-6	-47.4958
1.5619E-6	-47.515363
1.561945E-6	-47.522722
1.56199E-6	-47.4958
1.562035E-6	-47.31422
1.56208E-6	-46.920763
1.562125E-6	-46.613443
1.56217E-6	-46.509168
1.562215E-6	-46.487837
1.56226E-6	-46.489771
1.562305E-6	-46.515004
1.56235E-6	-46.550186
1.562395E-6	-46.595559
1.56244E-6	-46.784016
1.562485E-6	-47.189666
1.56253E-6	-47.557229
1.562575E-6	-47.728849
1.56262E-6	-47.785858
1.562665E-6	-47.8199
1.56271E-6	-47.840982
1.562755E-6	-47.848914
1.5628E-6	-47.835702
1.562845E-6	-47.677665
1.56289E-6	-47.309543
1.562935E-6	-46.983191
1.56298E-6	-46.863437
1.563025E-6	-46.848697
1.56307E-6	-46.863437
1.563115E-6	-46.888822
1.56316E-6	-46.922901
1.563205E-6	-46.96372
1.56325E-6	-47.135435
1.563295E-6	-47.503126
1.56334E-6	-47.90485
1.563385E-6	-48.08549
1.56343E-6	-48.144578
1.563475E-6	-48.17015
