Wavelength (nm)	Power (dBm)
1.525E-6	-60.520764
1.525045E-6	-60.534986
1.52509E-6	-61.191293
1.525135E-6	-63.26058
1.52518E-6	-67.14893
1.525225E-6	-70.37536
1.52527E-6	-71.867527
1.525315E-6	-72.021095
1.52536E-6	-71.898347
1.525405E-6	-71.91654
1.52545E-6	-69.842212
1.525495E-6	-64.602968
1.52554E-6	-61.203308
1.525585E-6	-59.742846
1.52563E-6	-59.310724
1.525675E-6	-59.136402
1.52572E-6	-58.958544
1.525765E-6	-58.790972
1.52581E-6	-58.693447
1.525855E-6	-59.161392
1.5259E-6	-60.917831
1.525945E-6	-64.667365
1.52599E-6	-69.336741
1.526035E-6	-71.280186
1.52608E-6	-71.844223
1.526125E-6	-71.795358
1.52617E-6	-71.699248
1.526215E-6	-70.25074
1.52626E-6	-64.447846
1.526305E-6	-60.4072
1.52635E-6	-58.520147
1.526395E-6	-57.923656
1.52644E-6	-57.734001
1.526485E-6	-57.639669
1.52653E-6	-57.559704
1.526575E-6	-57.515363
1.52662E-6	-57.767637
1.526665E-6	-59.233596
1.52671E-6	-62.307704
1.526755E-6	-67.349462
1.5268E-6	-70.53646
1.526845E-6	-71.558958
1.52689E-6	-71.600822
1.526935E-6	-71.646265
1.52698E-6	-70.786778
1.527025E-6	-64.839938
1.52707E-6	-60.009565
1.527115E-6	-57.508016
1.52716E-6	-56.708056
1.527205E-6	-56.513058
1.52725E-6	-56.435917
1.527295E-6	-56.360122
1.52734E-6	-56.332036
1.527385E-6	-56.458916
1.52743E-6	-57.522722
1.527475E-6	-60.229627
1.52752E-6	-65.015516
1.527565E-6	-69.817157
1.52761E-6	-71.396021
1.527655E-6	-71.463626
1.5277E-6	-71.515645
1.527745E-6	-71.04688
1.52779E-6	-66.011923
1.527835E-6	-60.317039
1.52788E-6	-56.981023
1.527925E-6	-55.835259
1.52797E-6	-55.56737
1.528015E-6	-55.486742
1.52806E-6	-55.43634
1.528105E-6	-55.395532
1.52815E-6	-55.425723
1.528195E-6	-56.14215
1.52824E-6	-58.44057
1.528285E-6	-62.602695
1.52833E-6	-68.082696
1.528375E-6	-70.53204
1.52842E-6	-70.895891
1.528465E-6	-69.965395
1.52851E-6	-65.914209
1.528555E-6	-56.639407
1.5286E-6	-40.848113
1.528645E-6	-34.326207
1.52869E-6	-31.202735
1.528735E-6	-30.288634
1.52878E-6	-30.074023
1.528825E-6	-29.931063
1.52887E-6	-29.846402
1.528915E-6	-29.948195
1.52896E-6	-31.426675
1.529005E-6	-35.578339
1.52905E-6	-44.045038
1.529095E-6	-55.586191
1.52914E-6	-62.12327
1.529185E-6	-67.212464
1.52923E-6	-69.072794
1.529275E-6	-67.139929
1.52932E-6	-61.255762
1.529365E-6	-44.436975
1.52941E-6	-35.808707
1.529455E-6	-31.907771
1.5295E-6	-30.346101
1.529545E-6	-29.961088
1.52959E-6	-29.875846
1.529635E-6	-29.75925
1.52968E-6	-29.763361
1.529725E-6	-30.682371
1.52977E-6	-33.714067
1.529815E-6	-40.17367
1.52986E-6	-51.430899
1.529905E-6	-60.910327
1.52995E-6	-65.845258
1.529995E-6	-68.709549
1.53004E-6	-68.116341
1.530085E-6	-63.725317
1.53013E-6	-50.951763
1.530175E-6	-37.50557
1.53022E-6	-32.748237
1.530265E-6	-30.597824
1.53031E-6	-30.053749
1.530355E-6	-29.93534
1.5304E-6	-29.804683
1.530445E-6	-29.755143
1.53049E-6	-30.126913
1.530535E-6	-32.191069
1.53058E-6	-37.286231
1.530625E-6	-46.74074
1.53067E-6	-58.082696
1.530715E-6	-63.820566
1.53076E-6	-67.956087
1.530805E-6	-68.566729
1.53085E-6	-65.539291
1.530895E-6	-56.127882
1.53094E-6	-40.346572
1.530985E-6	-33.931889
1.53103E-6	-31.064602
1.531075E-6	-30.169152
1.53112E-6	-29.943906
1.531165E-6	-29.871628
1.53121E-6	-29.850597
1.531255E-6	-30.027884
1.5313E-6	-31.382267
1.531345E-6	-35.273898
1.53139E-6	-43.192114
1.531435E-6	-55.259295
1.53148E-6	-62.71971
1.531525E-6	-67.035542
1.53157E-6	-68.787685
1.531615E-6	-67.128704
1.53166E-6	-61.225135
1.531705E-6	-46.188849
1.53175E-6	-35.75445
1.531795E-6	-31.687063
1.53184E-6	-30.186798
1.531885E-6	-29.871628
1.53193E-6	-29.808837
1.531975E-6	-29.792245
1.53202E-6	-29.854795
1.532065E-6	-30.562582
1.53211E-6	-33.130957
1.532155E-6	-39.3968
1.5322E-6	-49.92679
1.532245E-6	-59.829667
1.53229E-6	-65.041782
1.532335E-6	-68.350526
1.53238E-6	-68.187282
1.532425E-6	-64.051656
1.53247E-6	-52.483361
1.532515E-6	-38.013429
1.53256E-6	-32.794273
1.532605E-6	-30.574959
1.53265E-6	-30.037949
1.532695E-6	-29.92679
1.53274E-6	-29.956786
1.532785E-6	-30.012177
1.53283E-6	-30.374413
1.532875E-6	-32.227907
1.53292E-6	-36.944337
1.532965E-6	-45.987718
1.53301E-6	-57.185121
1.533055E-6	-63.342314
1.5331E-6	-67.785858
1.533145E-6	-68.794261
1.53319E-6	-66.451236
1.533235E-6	-59.657727
1.53328E-6	-42.8208
1.533325E-6	-34.885177
1.53337E-6	-31.291281
1.533415E-6	-30.021769
1.53346E-6	-29.833845
1.533505E-6	-29.850597
1.53355E-6	-29.943906
1.533595E-6	-30.14933
1.53364E-6	-31.117082
1.533685E-6	-34.420119
1.53373E-6	-41.031432
1.533775E-6	-52.152401
1.53382E-6	-61.422455
1.533865E-6	-66.230582
1.53391E-6	-68.693447
1.533955E-6	-67.966951
1.534E-6	-63.224843
1.534045E-6	-50.747911
1.53409E-6	-36.944337
1.534135E-6	-32.24608
1.53418E-6	-30.252121
1.534225E-6	-29.812995
1.53427E-6	-29.825493
1.534315E-6	-29.905491
1.53436E-6	-30.031382
1.534405E-6	-30.520764
1.53445E-6	-32.612987
1.534495E-6	-37.685304
1.53454E-6	-47.044329
1.534585E-6	-57.942545
1.53463E-6	-63.89979
1.534675E-6	-68.032713
1.53472E-6	-68.78112
1.534765E-6	-65.83859
1.53481E-6	-58.44664
1.534855E-6	-41.262145
1.5349E-6	-34.211317
1.534945E-6	-30.978883
1.53499E-6	-29.995659
1.535035E-6	-29.918258
1.53508E-6	-30
1.535125E-6	-30.089069
1.53517E-6	-30.3659
1.535215E-6	-31.66343
1.53526E-6	-35.25638
1.535305E-6	-42.555505
1.53535E-6	-54.694161
1.535395E-6	-62.542228
1.53544E-6	-66.937895
1.535485E-6	-68.979095
1.53553E-6	-67.75726
1.535575E-6	-63.086532
1.53562E-6	-49.871628
1.535665E-6	-36.775739
1.53571E-6	-32.168829
1.535755E-6	-30.252121
1.5358E-6	-29.875846
1.535845E-6	-29.897
1.53589E-6	-30.02046
1.535935E-6	-30.118425
1.53598E-6	-30.671712
1.536025E-6	-32.956779
1.53607E-6	-38.623295
1.536115E-6	-48.629625
1.53616E-6	-59.161392
1.536205E-6	-64.666093
1.53625E-6	-68.268137
1.536295E-6	-68.894103
1.53634E-6	-65.694412
1.536385E-6	-58.096683
1.53643E-6	-41.067377
1.536475E-6	-34.058285
1.53652E-6	-30.848113
1.536565E-6	-29.931063
1.53661E-6	-29.854795
1.536655E-6	-29.888526
1.5367E-6	-29.956786
1.536745E-6	-30.184532
1.53679E-6	-31.434524
1.536835E-6	-35.062632
1.53688E-6	-42.677671
1.536925E-6	-54.778167
1.53697E-6	-62.620921
1.537015E-6	-66.940041
1.53706E-6	-69.048306
1.537105E-6	-67.918275
1.53715E-6	-63.065369
1.537195E-6	-49.897
1.53724E-6	-36.687752
1.537285E-6	-32.150976
1.53733E-6	-30.211806
1.537375E-6	-29.821323
1.53742E-6	-29.796387
1.537465E-6	-29.833845
1.53751E-6	-29.880069
1.537555E-6	-30.372046
1.5376E-6	-32.640819
1.537645E-6	-38.215987
1.53769E-6	-47.915586
1.537735E-6	-58.712777
1.53778E-6	-64.352156
1.537825E-6	-68.119156
1.53787E-6	-68.8706
1.537915E-6	-66.140364
1.53796E-6	-59.104481
1.538005E-6	-41.982534
1.53805E-6	-34.450265
1.538095E-6	-31.075715
1.53814E-6	-29.982663
1.538185E-6	-29.817157
1.53823E-6	-29.771594
1.538275E-6	-29.75925
1.53832E-6	-29.897
1.538365E-6	-30.990869
1.53841E-6	-34.511194
1.538455E-6	-41.521807
1.5385E-6	-52.755603
1.538545E-6	-61.942274
1.53859E-6	-66.565914
1.538635E-6	-68.9279
1.53868E-6	-68.224635
1.538725E-6	-63.91795
1.53877E-6	-51.48864
1.538815E-6	-37.652297
1.53886E-6	-32.718086
1.538905E-6	-30.606305
1.53895E-6	-30.075349
1.538995E-6	-29.961088
1.53904E-6	-29.922522
1.539085E-6	-29.922522
1.53913E-6	-30.301184
1.539175E-6	-32.329926
1.53922E-6	-37.515363
1.539265E-6	-46.794383
1.53931E-6	-57.986029
1.539355E-6	-63.873221
1.5394E-6	-68.024438
1.539445E-6	-68.992849
1.53949E-6	-66.509168
1.539535E-6	-60.089512
1.53958E-6	-42.931116
1.539625E-6	-35.090588
1.53967E-6	-31.530447
1.539715E-6	-30.267336
1.53976E-6	-30.035759
1.539805E-6	-29.948195
1.53985E-6	-29.918258
1.539895E-6	-29.986991
1.53994E-6	-30.906045
1.539985E-6	-34.026339
1.54003E-6	-40.951763
1.540075E-6	-51.990081
1.54012E-6	-61.179311
1.540165E-6	-66.053732
1.54021E-6	-68.904215
1.540255E-6	-68.517059
1.5403E-6	-64.692882
1.540345E-6	-53.385659
1.54039E-6	-38.648673
1.540435E-6	-33.249553
1.54048E-6	-30.771708
1.540525E-6	-30.081982
1.54057E-6	-29.948195
1.540615E-6	-29.875846
1.54066E-6	-29.846402
1.540705E-6	-30.140349
1.54075E-6	-31.83825
1.540795E-6	-36.413039
1.54084E-6	-45.029321
1.540885E-6	-56.673596
1.54093E-6	-62.882771
1.540975E-6	-67.535014
1.54102E-6	-69.108016
1.541065E-6	-67.500682
1.54111E-6	-61.77309
1.541155E-6	-47.119745
1.5412E-6	-35.944829
1.541245E-6	-32.025247
1.54129E-6	-30.45227
1.541335E-6	-30.067402
1.54138E-6	-30.000869
1.541425E-6	-29.965395
1.54147E-6	-29.969705
1.541515E-6	-30.646943
1.54156E-6	-33.356401
1.541605E-6	-39.673812
1.54165E-6	-49.92679
1.541695E-6	-59.901244
1.54174E-6	-65.329842
1.541785E-6	-68.582368
1.54183E-6	-68.699881
1.541875E-6	-65.43027
1.54192E-6	-56.205132
1.541965E-6	-40.074023
1.54201E-6	-33.773716
1.542055E-6	-30.853924
1.5421E-6	-30.000434
1.542145E-6	-29.812995
1.54219E-6	-29.767475
1.542235E-6	-29.718356
1.54228E-6	-29.846402
1.542325E-6	-31.105302
1.54237E-6	-34.76774
1.542415E-6	-42.471068
1.54246E-6	-54.248122
1.542505E-6	-62.082392
1.54255E-6	-66.701955
1.542595E-6	-68.944898
1.54264E-6	-67.942545
1.542685E-6	-63.439018
1.54273E-6	-50.619308
1.542775E-6	-37.217038
1.54282E-6	-32.563335
1.542865E-6	-30.592843
1.54291E-6	-30.118872
1.542955E-6	-30.014791
1.543E-6	-29.991323
1.543045E-6	-29.956786
1.54309E-6	-30.269184
1.543135E-6	-32.158108
1.54318E-6	-36.955095
1.543225E-6	-46.380834
1.54327E-6	-57.549811
1.543315E-6	-63.46691
1.54336E-6	-67.772835
1.543405E-6	-68.840568
1.54345E-6	-66.710091
1.543495E-6	-60.4072
1.54354E-6	-43.41321
1.543585E-6	-35.316527
1.54363E-6	-31.643094
1.543675E-6	-30.283068
1.54372E-6	-30.004345
1.543765E-6	-29.948195
1.54381E-6	-29.901244
1.543855E-6	-29.943906
1.5439E-6	-30.685421
1.543945E-6	-33.441895
1.54399E-6	-39.393022
1.544035E-6	-50.25074
1.54408E-6	-60.059029
1.544125E-6	-65.22011
1.54417E-6	-68.474059
1.544215E-6	-68.569852
1.54426E-6	-65.176982
1.544305E-6	-55.665502
1.54435E-6	-39.779843
1.544395E-6	-33.666326
1.54444E-6	-30.951763
1.544485E-6	-30.158779
1.54453E-6	-30.016535
1.544575E-6	-29.965395
1.54462E-6	-29.948195
1.544665E-6	-30.080212
1.54471E-6	-31.330042
1.544755E-6	-35.061239
1.5448E-6	-42.650402
1.544845E-6	-54.696722
1.54489E-6	-62.359734
1.544935E-6	-66.7305
1.54498E-6	-68.85389
1.545025E-6	-67.772835
1.54507E-6	-63.003357
1.545115E-6	-49.609827
1.54516E-6	-36.878226
1.545205E-6	-32.377717
1.54525E-6	-30.399099
1.545295E-6	-29.978339
1.54534E-6	-29.884296
1.545385E-6	-29.875846
1.54543E-6	-29.871628
1.545475E-6	-30.227338
1.54552E-6	-32.212701
1.545565E-6	-37.126462
1.54561E-6	-46.217839
1.545655E-6	-57.4958
1.5457E-6	-63.31987
1.545745E-6	-67.759852
1.54579E-6	-68.996295
1.545835E-6	-66.823545
1.54588E-6	-60.958798
1.545925E-6	-44.073792
1.54597E-6	-35.514483
1.546015E-6	-31.558958
1.54606E-6	-30.210438
1.546105E-6	-29.943906
1.54615E-6	-29.892761
1.546195E-6	-29.875846
1.54624E-6	-29.897
1.546285E-6	-30.5061
1.54633E-6	-32.994693
1.546375E-6	-39.240882
1.54642E-6	-49.496202
1.546465E-6	-59.531148
1.54651E-6	-64.796475
1.546555E-6	-68.332739
1.5466E-6	-68.635966
1.546645E-6	-65.597208
1.54669E-6	-56.460838
1.546735E-6	-40.824945
1.54678E-6	-34.093811
1.546825E-6	-31.060719
1.54687E-6	-30.128702
1.546915E-6	-29.986991
1.54696E-6	-29.93534
1.547005E-6	-29.918258
1.54705E-6	-30.054629
1.547095E-6	-31.104742
1.54714E-6	-34.418917
1.547185E-6	-41.21938
1.54723E-6	-52.353756
1.547275E-6	-61.514414
1.54732E-6	-66.326441
1.547365E-6	-68.78112
1.54741E-6	-68.33866
1.547455E-6	-64.154426
1.5475E-6	-52.870979
1.547545E-6	-38.27689
1.54759E-6	-32.97311
1.547635E-6	-30.62432
1.54768E-6	-30.036197
1.547725E-6	-29.918258
1.54777E-6	-29.918258
1.547815E-6	-29.918258
1.54786E-6	-30.119764
1.547905E-6	-31.558336
1.54795E-6	-35.635193
1.547995E-6	-43.826851
1.54804E-6	-55.442418
1.548085E-6	-61.739252
1.54813E-6	-67.053134
1.548175E-6	-68.938091
1.54822E-6	-67.654827
1.548265E-6	-62.42604
1.54831E-6	-48.768019
1.548355E-6	-36.561977
1.5484E-6	-32.228633
1.548445E-6	-30.377728
1.54849E-6	-29.952488
1.548535E-6	-29.897
1.54858E-6	-29.905491
1.548625E-6	-29.922522
1.54867E-6	-30.290491
1.548715E-6	-32.271651
1.54876E-6	-37.377863
1.548805E-6	-46.714166
1.54885E-6	-57.726276
1.548895E-6	-63.601153
1.54894E-6	-67.90217
1.548985E-6	-69.003194
1.54903E-6	-66.871882
1.549075E-6	-60.651987
1.54912E-6	-46.151092
1.549165E-6	-35.734887
1.54921E-6	-31.702461
1.549255E-6	-30.223221
1.5493E-6	-29.961088
1.549345E-6	-29.909743
1.54939E-6	-29.892761
1.549435E-6	-29.952488
1.54948E-6	-30.576447
1.549525E-6	-33.082115
1.54957E-6	-38.863908
1.549615E-6	-48.924509
1.54966E-6	-59.157813
1.549705E-6	-64.503838
1.54975E-6	-68.294449
1.549795E-6	-68.76475
1.54984E-6	-65.743028
1.549885E-6	-58.380334
1.54993E-6	-41.436337
1.549975E-6	-34.343883
1.55002E-6	-31.122702
1.550065E-6	-30.109508
1.55011E-6	-29.92679
1.550155E-6	-29.897
1.5502E-6	-29.884296
1.550245E-6	-29.93962
1.55029E-6	-30.680339
1.550335E-6	-33.454384
1.55038E-6	-39.582127
1.550425E-6	-50.768078
1.55047E-6	-60.24063
1.550515E-6	-65.401554
1.55056E-6	-68.572978
1.550605E-6	-68.566729
1.55065E-6	-64.8096
1.550695E-6	-55.080783
1.55074E-6	-39.492337
1.550785E-6	-33.582285
1.55083E-6	-30.832303
1.550875E-6	-30.041455
1.55092E-6	-29.901244
1.550965E-6	-29.880069
1.55101E-6	-29.871628
1.551055E-6	-29.965395
1.5511E-6	-31.010555
1.551145E-6	-34.429743
1.55119E-6	-41.56269
1.551235E-6	-52.573534
1.55128E-6	-61.579527
1.551325E-6	-66.205132
1.55137E-6	-68.76475
1.551415E-6	-68.253588
1.55146E-6	-64.149907
1.551505E-6	-53.032069
1.55155E-6	-38.566729
1.551595E-6	-33.140792
1.55164E-6	-30.710923
1.551685E-6	-30.045403
1.55173E-6	-29.948195
1.551775E-6	-29.901244
1.55182E-6	-29.897
1.551865E-6	-30.074465
1.55191E-6	-31.463626
1.551955E-6	-35.421181
1.552E-6	-43.15963
1.552045E-6	-54.88384
1.55209E-6	-62.540668
1.552135E-6	-66.873996
1.55218E-6	-68.827287
1.552225E-6	-67.809397
1.55227E-6	-62.947351
1.552315E-6	-49.995659
1.55236E-6	-37.07301
1.552405E-6	-32.448877
1.55245E-6	-30.455645
1.552495E-6	-30.00391
1.55254E-6	-29.92679
1.552585E-6	-29.880069
1.55263E-6	-29.871628
1.552675E-6	-30.15923
1.55272E-6	-31.852864
1.552765E-6	-36.5738
1.55281E-6	-45.034855
1.552855E-6	-56.53647
1.5529E-6	-62.688949
1.552945E-6	-67.577071
1.55299E-6	-68.948306
1.553035E-6	-67.370745
1.55308E-6	-61.987335
1.553125E-6	-47.972393
1.55317E-6	-36.078309
1.553215E-6	-31.977738
1.55326E-6	-30.355989
1.553305E-6	-29.961088
1.55335E-6	-29.884296
1.553395E-6	-29.863203
1.55344E-6	-29.863203
1.553485E-6	-30.261336
1.55353E-6	-32.276049
1.553575E-6	-37.194216
1.55362E-6	-46.27088
1.553665E-6	-57.335331
1.55371E-6	-63.266104
1.553755E-6	-67.692957
1.5538E-6	-69.058784
1.553845E-6	-66.965879
1.55389E-6	-60.966929
1.553935E-6	-46.237881
1.55398E-6	-35.715412
1.554025E-6	-31.758742
1.55407E-6	-30.349395
1.554115E-6	-30.00478
1.55416E-6	-29.92679
1.554205E-6	-29.888526
1.55425E-6	-29.913998
1.554295E-6	-30.34281
1.55434E-6	-32.540668
1.554385E-6	-37.883456
1.55443E-6	-47.32359
1.554475E-6	-58.155925
1.55452E-6	-63.767507
1.554565E-6	-68.046539
1.55461E-6	-68.823973
1.554655E-6	-66.513058
1.5547E-6	-59.718356
1.554745E-6	-42.97311
1.55479E-6	-35.09901
1.554835E-6	-31.551502
1.55488E-6	-30.299787
1.554925E-6	-30.024826
1.55497E-6	-29.943906
1.555015E-6	-29.931063
1.55506E-6	-29.931063
1.555105E-6	-30.454681
1.55515E-6	-32.817475
1.555195E-6	-38.626459
1.55524E-6	-48.632794
1.555285E-6	-58.917733
1.55533E-6	-64.284076
1.555375E-6	-68.190144
1.55542E-6	-68.71924
1.555465E-6	-65.982549
1.55551E-6	-58.513973
1.555555E-6	-41.565181
1.5556E-6	-34.564286
1.555645E-6	-31.253443
1.55569E-6	-30.209983
1.555735E-6	-29.965395
1.55578E-6	-29.952488
1.555825E-6	-29.909743
1.55587E-6	-29.93534
1.555915E-6	-30.514403
1.55596E-6	-32.961929
1.556005E-6	-39.182927
1.55605E-6	-49.215432
1.556095E-6	-59.295927
1.55614E-6	-64.579219
1.556185E-6	-68.395315
1.55623E-6	-68.761484
1.556275E-6	-65.831931
1.55632E-6	-58.344589
1.556365E-6	-41.575156
1.55641E-6	-34.48428
1.556455E-6	-31.18216
1.5565E-6	-30.126019
1.556545E-6	-29.909743
1.55659E-6	-29.867413
1.556635E-6	-29.880069
1.55668E-6	-29.922522
1.556725E-6	-30.597824
1.55677E-6	-33.301255
1.556815E-6	-39.219058
1.55686E-6	-49.880069
1.556905E-6	-59.734667
1.55695E-6	-65.086383
1.556995E-6	-68.350526
1.55704E-6	-68.790972
1.557085E-6	-65.782316
1.55713E-6	-58.10229
1.557175E-6	-41.244179
1.55722E-6	-34.296906
1.557265E-6	-31.13171
1.55731E-6	-30.113965
1.557355E-6	-29.913998
1.5574E-6	-29.867413
1.557445E-6	-29.888526
1.55749E-6	-29.93962
1.557535E-6	-30.650977
1.55758E-6	-33.494982
1.557625E-6	-39.50782
1.55767E-6	-50.423448
1.557715E-6	-60.076232
1.55776E-6	-65.22011
1.557805E-6	-68.535619
1.55785E-6	-68.850556
1.557895E-6	-65.788899
1.55794E-6	-57.171514
1.557985E-6	-41.158846
1.55803E-6	-34.340342
1.558075E-6	-31.111468
1.55812E-6	-30.012177
1.558165E-6	-29.833845
1.55821E-6	-29.808837
1.558255E-6	-29.808837
1.5583E-6	-29.880069
1.558345E-6	-30.655521
1.55839E-6	-33.564486
1.558435E-6	-39.738755
1.55848E-6	-50.635868
1.558525E-6	-60.191788
1.55857E-6	-65.250557
1.558615E-6	-68.582368
1.55866E-6	-68.837244
1.558705E-6	-65.721894
1.55875E-6	-57.011469
1.558795E-6	-41.144692
1.55884E-6	-34.284076
1.558885E-6	-31.047432
1.55893E-6	-30.055069
1.558975E-6	-29.884296
1.55902E-6	-29.880069
1.559065E-6	-29.905491
1.55911E-6	-29.995659
1.559155E-6	-30.743785
1.5592E-6	-33.440936
1.559245E-6	-39.419538
1.55929E-6	-50.398623
1.559335E-6	-60.093504
1.55938E-6	-65.278289
1.559425E-6	-68.610661
1.55947E-6	-68.76475
1.559515E-6	-65.643149
1.55956E-6	-56.710091
1.559605E-6	-40.611302
1.55965E-6	-34.029633
1.559695E-6	-30.987052
1.55974E-6	-30.054629
1.559785E-6	-29.92679
1.55983E-6	-29.93534
1.559875E-6	-29.986991
1.55992E-6	-30.096167
1.559965E-6	-30.860273
1.56001E-6	-33.709984
1.560055E-6	-39.880069
1.5601E-6	-50.529586
1.560145E-6	-60.151128
1.56019E-6	-65.335773
1.560235E-6	-68.680607
1.56028E-6	-68.975663
1.560325E-6	-66.004993
1.56037E-6	-58.44664
1.560415E-6	-41.614657
1.56046E-6	-34.348608
1.560505E-6	-30.965844
1.56055E-6	-29.943906
1.560595E-6	-29.804683
1.56064E-6	-29.808837
1.560685E-6	-29.863203
1.56073E-6	-29.986991
1.560775E-6	-30.735032
1.56082E-6	-33.539886
1.560865E-6	-39.554602
1.56091E-6	-50.470623
1.560955E-6	-60.265489
1.561E-6	-65.32836
1.561045E-6	-68.677403
1.56109E-6	-68.968807
1.561135E-6	-66.080069
1.56118E-6	-58.582368
1.561225E-6	-41.679384
1.56127E-6	-34.396151
1.561315E-6	-31.012748
1.56136E-6	-29.978339
1.561405E-6	-29.821323
1.56145E-6	-29.833845
1.561495E-6	-29.897
1.56154E-6	-30
1.561585E-6	-30.668165
1.56163E-6	-33.263341
1.561675E-6	-39.542859
1.56172E-6	-49.500071
1.561765E-6	-59.566377
1.56181E-6	-64.882503
1.561855E-6	-68.53252
1.5619E-6	-69.108016
1.561945E-6	-66.794383
1.56199E-6	-60.346572
1.562035E-6	-43.514448
1.56208E-6	-35.09901
1.562125E-6	-31.398417
1.56217E-6	-30.125125
1.562215E-6	-29.931063
1.56226E-6	-29.943906
1.562305E-6	-30.018279
1.56235E-6	-30.128255
1.562395E-6	-30.629337
1.56244E-6	-32.808345
1.562485E-6	-38.359447
1.56253E-6	-47.642191
1.562575E-6	-58.419392
1.56262E-6	-64.20445
1.562665E-6	-68.38632
1.56271E-6	-69.219058
1.562755E-6	-67.251497
1.5628E-6	-61.206747
1.562845E-6	-46.516951
1.56289E-6	-35.662302
1.562935E-6	-31.468496
1.56298E-6	-29.995659
1.563025E-6	-29.730584
1.56307E-6	-29.767475
1.563115E-6	-29.854795
1.56316E-6	-29.961088
1.563205E-6	-30.429197
1.56325E-6	-32.536772
1.563295E-6	-37.664962
1.56334E-6	-47.559704
1.563385E-6	-57.872798
1.56343E-6	-63.572388
1.563475E-6	-68.164455
1.56352E-6	-69.377942
1.563565E-6	-67.692957
