Wavelength (nm)	Power (dBm)
1.525E-6	-58.507809
1.525045E-6	-58.517059
1.52509E-6	-59.200955
1.525135E-6	-61.423057
1.52518E-6	-65.731635
1.525225E-6	-70.152027
1.52527E-6	-72.276049
1.525315E-6	-72.735988
1.52536E-6	-72.595584
1.525405E-6	-72.526659
1.52545E-6	-69.139963
1.525495E-6	-62.786016
1.52554E-6	-59.251836
1.525585E-6	-57.672579
1.52563E-6	-57.228494
1.525675E-6	-57.070797
1.52572E-6	-56.899443
1.525765E-6	-56.726411
1.52581E-6	-56.641411
1.525855E-6	-57.130946
1.5259E-6	-59.115095
1.525945E-6	-62.958495
1.52599E-6	-68.626459
1.526035E-6	-71.665341
1.52608E-6	-72.576677
1.526125E-6	-72.511146
1.52617E-6	-72.550815
1.526215E-6	-69.742846
1.52626E-6	-62.61378
1.526305E-6	-58.374356
1.52635E-6	-56.371407
1.526395E-6	-55.793842
1.52644E-6	-55.639965
1.526485E-6	-55.542402
1.52653E-6	-55.471407
1.526575E-6	-55.431787
1.52662E-6	-55.704092
1.526665E-6	-57.178312
1.52671E-6	-60.415317
1.526755E-6	-66.043242
1.5268E-6	-70.506588
1.526845E-6	-72.30475
1.52689E-6	-72.231536
1.526935E-6	-72.060002
1.52698E-6	-70.567034
1.527025E-6	-63.100699
1.52707E-6	-57.8199
1.527115E-6	-55.43027
1.52716E-6	-54.605475
1.527205E-6	-54.392567
1.52725E-6	-54.323856
1.527295E-6	-54.272445
1.52734E-6	-54.233132
1.527385E-6	-54.353339
1.52743E-6	-55.450028
1.527475E-6	-58.495506
1.52752E-6	-63.421795
1.527565E-6	-69.182927
1.52761E-6	-71.749636
1.527655E-6	-71.983905
1.5277E-6	-71.946351
1.527745E-6	-71.288359
1.52779E-6	-64.373503
1.527835E-6	-58.204482
1.52788E-6	-54.895891
1.527925E-6	-53.771645
1.52797E-6	-53.457272
1.528015E-6	-53.388501
1.52806E-6	-53.33482
1.528105E-6	-53.299398
1.52815E-6	-53.34419
1.528195E-6	-54.041732
1.52824E-6	-56.382722
1.528285E-6	-60.768078
1.52833E-6	-67.013652
1.528375E-6	-70.841255
1.52842E-6	-71.948391
1.528465E-6	-71.811805
1.52851E-6	-71.592668
1.528555E-6	-66.038007
1.5286E-6	-58.92112
1.528645E-6	-54.795165
1.52869E-6	-53.15963
1.528735E-6	-52.711594
1.52878E-6	-52.659206
1.528825E-6	-52.639224
1.52887E-6	-52.564902
1.528915E-6	-52.549252
1.52896E-6	-52.96107
1.529005E-6	-54.715976
1.52905E-6	-58.712777
1.529095E-6	-64.388986
1.52914E-6	-69.527251
1.529185E-6	-70.741724
1.52923E-6	-70.047159
1.529275E-6	-66.378947
1.52932E-6	-59.37418
1.529365E-6	-42.401056
1.52941E-6	-33.816381
1.529455E-6	-29.901244
1.5295E-6	-28.389316
1.529545E-6	-28.027194
1.52959E-6	-27.920965
1.529635E-6	-27.806775
1.52968E-6	-27.804155
1.529725E-6	-28.732194
1.52977E-6	-31.733422
1.529815E-6	-38.92112
1.52986E-6	-49.519468
1.529905E-6	-59.200955
1.52995E-6	-64.541982
1.529995E-6	-68.576105
1.53004E-6	-70.046281
1.530085E-6	-69.842212
1.53013E-6	-62.679281
1.530175E-6	-56.151092
1.53022E-6	-53.165927
1.530265E-6	-52.005216
1.53031E-6	-51.736012
1.530355E-6	-51.682582
1.5304E-6	-51.630433
1.530445E-6	-51.60522
1.53049E-6	-51.706962
1.530535E-6	-52.457281
1.53058E-6	-54.85054
1.530625E-6	-59.562449
1.53067E-6	-65.687971
1.530715E-6	-69.792245
1.53076E-6	-70.603809
1.530805E-6	-68.996295
1.53085E-6	-64.13863
1.530895E-6	-54.175957
1.53094E-6	-38.291518
1.530985E-6	-31.875546
1.53103E-6	-29.04482
1.531075E-6	-28.158766
1.53112E-6	-27.964232
1.531165E-6	-27.90217
1.53121E-6	-27.878124
1.531255E-6	-28.06041
1.5313E-6	-29.50782
1.531345E-6	-33.342314
1.53139E-6	-41.16793
1.531435E-6	-52.330669
1.53148E-6	-61.248229
1.531525E-6	-66.138579
1.53157E-6	-69.118639
1.531615E-6	-70.167798
1.53166E-6	-68.467951
1.531705E-6	-60.176835
1.53175E-6	-54.690323
1.531795E-6	-52.282656
1.53184E-6	-51.527976
1.531885E-6	-51.393626
1.53193E-6	-51.414027
1.531975E-6	-51.432107
1.53202E-6	-51.384656
1.532065E-6	-51.551502
1.53211E-6	-52.631256
1.532155E-6	-55.609833
1.5322E-6	-60.55616
1.532245E-6	-67.153437
1.53229E-6	-70.057709
1.532335E-6	-70.220936
1.53238E-6	-68.173001
1.532425E-6	-62.607442
1.53247E-6	-50.333421
1.532515E-6	-36.289321
1.53256E-6	-30.758241
1.532605E-6	-28.498578
1.53265E-6	-27.942545
1.532695E-6	-27.827793
1.53274E-6	-27.840982
1.532785E-6	-27.918275
1.53283E-6	-28.353498
1.532875E-6	-30.184985
1.53292E-6	-34.921441
1.532965E-6	-43.960982
1.53301E-6	-55.290018
1.533055E-6	-62.595584
1.5331E-6	-67.164726
1.533145E-6	-69.503944
1.53319E-6	-70.283531
1.533235E-6	-66.933606
1.53328E-6	-59.377942
1.533325E-6	-54.614263
1.53337E-6	-52.546909
1.533415E-6	-51.923297
1.53346E-6	-51.8303
1.533505E-6	-51.862856
1.53355E-6	-51.947711
1.533595E-6	-52.054422
1.53364E-6	-52.395775
1.533685E-6	-53.745846
1.53373E-6	-57.013652
1.533775E-6	-62.331412
1.53382E-6	-68.425432
1.533865E-6	-70.534986
1.53391E-6	-70.19633
1.533955E-6	-67.592012
1.534E-6	-61.688984
1.534045E-6	-48.706324
1.53409E-6	-35.350636
1.534135E-6	-30.303512
1.53418E-6	-28.297383
1.534225E-6	-27.872798
1.53427E-6	-27.90217
1.534315E-6	-27.9588
1.53436E-6	-28.074325
1.534405E-6	-28.598063
1.53445E-6	-30.656531
1.534495E-6	-35.655908
1.53454E-6	-45.084982
1.534585E-6	-56.158259
1.53463E-6	-62.438205
1.534675E-6	-67.498241
1.53472E-6	-69.718356
1.534765E-6	-70.577438
1.53481E-6	-67.090754
1.534855E-6	-59.991323
1.5349E-6	-55.70894
1.534945E-6	-53.940488
1.53499E-6	-53.484313
1.535035E-6	-53.457272
1.53508E-6	-53.482376
1.535125E-6	-53.52617
1.53517E-6	-53.580304
1.535215E-6	-53.915809
1.53526E-6	-55.377518
1.535305E-6	-58.894103
1.53535E-6	-64.323856
1.535395E-6	-69.515582
1.53544E-6	-70.828097
1.535485E-6	-70.19315
1.53553E-6	-67.113037
1.535575E-6	-61.228591
1.53562E-6	-47.87546
1.535665E-6	-35.076587
1.53571E-6	-30.105947
1.535755E-6	-28.133261
1.5358E-6	-27.75726
1.535845E-6	-27.801536
1.53589E-6	-27.888795
1.535935E-6	-27.983298
1.53598E-6	-28.585502
1.536025E-6	-30.824945
1.53607E-6	-36.589614
1.536115E-6	-46.447401
1.53616E-6	-57.293212
1.536205E-6	-63.202996
1.53625E-6	-67.92635
1.536295E-6	-69.965395
1.53634E-6	-70.672726
1.536385E-6	-68.158766
1.53643E-6	-61.030331
1.536475E-6	-56.850799
1.53652E-6	-55.234582
1.536565E-6	-54.800408
1.53661E-6	-54.745664
1.536655E-6	-54.771647
1.5367E-6	-54.793855
1.536745E-6	-54.833324
1.53679E-6	-55.198493
1.536835E-6	-56.659486
1.53688E-6	-59.788107
1.536925E-6	-65.364056
1.53697E-6	-69.605859
1.537015E-6	-70.965302
1.53706E-6	-70.235125
1.537105E-6	-67.263044
1.53715E-6	-61.202735
1.537195E-6	-47.788467
1.53724E-6	-35.066814
1.537285E-6	-30.220022
1.53733E-6	-28.207355
1.537375E-6	-27.814645
1.53742E-6	-27.798919
1.537465E-6	-27.8199
1.53751E-6	-27.862167
1.537555E-6	-28.41336
1.5376E-6	-30.631345
1.537645E-6	-36.181632
1.53769E-6	-46.131445
1.537735E-6	-56.882461
1.53778E-6	-62.939653
1.537825E-6	-67.910215
1.53787E-6	-69.991323
1.537915E-6	-70.811313
1.53796E-6	-68.71924
1.538005E-6	-61.968844
1.53805E-6	-57.572102
1.538095E-6	-55.8603
1.53814E-6	-55.401554
1.538185E-6	-55.334289
1.53823E-6	-55.320961
1.538275E-6	-55.313573
1.53832E-6	-55.326879
1.538365E-6	-55.62408
1.53841E-6	-56.952941
1.538455E-6	-59.918258
1.5385E-6	-65.292956
1.538545E-6	-69.566377
1.53859E-6	-71.075158
1.538635E-6	-70.476435
1.53868E-6	-68.079904
1.538725E-6	-62.293689
1.53877E-6	-49.35542
1.538815E-6	-36.001533
1.53886E-6	-30.681863
1.538905E-6	-28.582368
1.53895E-6	-28.038238
1.538995E-6	-27.94525
1.53904E-6	-27.907532
1.539085E-6	-27.9129
1.53913E-6	-28.297383
1.539175E-6	-30.243385
1.53922E-6	-35.389519
1.539265E-6	-44.795165
1.53931E-6	-56.104795
1.539355E-6	-62.423004
1.5394E-6	-67.552282
1.539445E-6	-69.884296
1.53949E-6	-70.69051
1.539535E-6	-69.090369
1.53958E-6	-62.130357
1.539625E-6	-57.710866
1.53967E-6	-55.798792
1.539715E-6	-55.22011
1.53976E-6	-55.110265
1.539805E-6	-55.089186
1.53985E-6	-55.073793
1.539895E-6	-55.071
1.53994E-6	-55.304725
1.539985E-6	-56.524748
1.54003E-6	-59.677843
1.540075E-6	-64.470885
1.54012E-6	-69.41574
1.540165E-6	-70.829674
1.54021E-6	-70.616304
1.540255E-6	-68.674202
1.5403E-6	-63.168629
1.540345E-6	-51.463018
1.54039E-6	-36.68168
1.540435E-6	-31.206174
1.54048E-6	-28.738686
1.540525E-6	-28.054857
1.54057E-6	-27.910215
1.540615E-6	-27.843624
1.54066E-6	-27.856861
1.540705E-6	-28.119156
1.54075E-6	-29.833845
1.540795E-6	-34.360445
1.54084E-6	-43.188493
1.540885E-6	-54.837291
1.54093E-6	-62.302535
1.540975E-6	-67.033348
1.54102E-6	-69.613798
1.541065E-6	-70.574959
1.54111E-6	-69.550685
1.541155E-6	-62.532102
1.5412E-6	-57.614521
1.541245E-6	-55.406075
1.54129E-6	-54.677554
1.541335E-6	-54.522253
1.54138E-6	-54.476969
1.541425E-6	-54.435769
1.54147E-6	-54.45632
1.541515E-6	-54.61175
1.54156E-6	-55.553308
1.541605E-6	-58.22175
1.54165E-6	-62.875187
1.541695E-6	-68.428456
1.54174E-6	-70.581409
1.541785E-6	-70.660574
1.54183E-6	-69.172146
1.541875E-6	-64.223933
1.54192E-6	-54.223933
1.541965E-6	-38.16161
1.54201E-6	-31.755487
1.542055E-6	-28.890738
1.5421E-6	-28.041003
1.542145E-6	-27.864822
1.54219E-6	-27.809397
1.542235E-6	-27.762445
1.54228E-6	-27.896815
1.542325E-6	-29.168559
1.54237E-6	-32.842473
1.542415E-6	-40.465303
1.54246E-6	-51.499667
1.542505E-6	-60.617806
1.54255E-6	-65.665502
1.542595E-6	-69.30702
1.54264E-6	-70.355518
1.542685E-6	-70.113519
1.54273E-6	-63.804893
1.542775E-6	-58.23041
1.54282E-6	-55.233133
1.542865E-6	-54.268962
1.54291E-6	-54.067139
1.542955E-6	-54.03953
1.543E-6	-54.035129
1.543045E-6	-54.003352
1.54309E-6	-54.066032
1.543135E-6	-54.719837
1.54318E-6	-56.888822
1.543225E-6	-60.963133
1.54327E-6	-66.905828
1.543315E-6	-70.183173
1.54336E-6	-70.73812
1.543405E-6	-69.710223
1.54345E-6	-65.611413
1.543495E-6	-58.233301
1.54354E-6	-41.254022
1.543585E-6	-33.237638
1.54363E-6	-29.488475
1.543675E-6	-28.155925
1.54372E-6	-27.90485
1.543765E-6	-27.856861
1.54381E-6	-27.825161
1.543855E-6	-27.856861
1.5439E-6	-28.632794
1.543945E-6	-31.341856
1.54399E-6	-37.856861
1.544035E-6	-48.253588
1.54408E-6	-58.344589
1.544125E-6	-63.952341
1.54417E-6	-68.458805
1.544215E-6	-69.965395
1.54426E-6	-70.430636
1.544305E-6	-65.946536
1.54435E-6	-59.37418
1.544395E-6	-55.520671
1.54444E-6	-54.108326
1.544485E-6	-53.749964
1.54453E-6	-53.702847
1.544575E-6	-53.704885
1.54462E-6	-53.694704
1.544665E-6	-53.714067
1.54471E-6	-54.071573
1.544755E-6	-55.700863
1.5448E-6	-59.389247
1.544845E-6	-64.719837
1.54489E-6	-69.633711
1.544935E-6	-70.850225
1.54498E-6	-70.209983
1.545025E-6	-67.380238
1.54507E-6	-61.308857
1.545115E-6	-47.525177
1.54516E-6	-35.28855
1.545205E-6	-30.421534
1.54525E-6	-28.50473
1.545295E-6	-28.06319
1.54534E-6	-27.980569
1.545385E-6	-27.947956
1.54543E-6	-27.966951
1.545475E-6	-28.344589
1.54552E-6	-30.259952
1.545565E-6	-35.09901
1.54561E-6	-44.257372
1.545655E-6	-55.614577
1.5457E-6	-61.92465
1.545745E-6	-67.191941
1.54579E-6	-69.633711
1.545835E-6	-70.461437
1.54588E-6	-68.910969
1.545925E-6	-61.573284
1.54597E-6	-56.542343
1.546015E-6	-54.339162
1.54606E-6	-53.714067
1.546105E-6	-53.599163
1.54615E-6	-53.589227
1.546195E-6	-53.547743
1.54624E-6	-53.56646
1.546285E-6	-53.7202
1.54633E-6	-54.668637
1.546375E-6	-57.423214
1.54642E-6	-62.100669
1.546465E-6	-67.888795
1.54651E-6	-70.306773
1.546555E-6	-70.534986
1.5466E-6	-69.08333
1.546645E-6	-64.32268
1.54669E-6	-54.428539
1.546735E-6	-38.610661
1.54678E-6	-31.995579
1.546825E-6	-29.023957
1.54687E-6	-28.10229
1.546915E-6	-27.90217
1.54696E-6	-27.864822
1.547005E-6	-27.880789
1.54705E-6	-28.007935
1.547095E-6	-29.097419
1.54714E-6	-32.36572
1.547185E-6	-39.219058
1.54723E-6	-50.450343
1.547275E-6	-59.706162
1.54732E-6	-65.047333
1.547365E-6	-68.87395
1.54741E-6	-70.167346
1.547455E-6	-70.223221
1.5475E-6	-64.473318
1.547545E-6	-58.362425
1.54759E-6	-55.019653
1.547635E-6	-53.787198
1.54768E-6	-53.532043
1.547725E-6	-53.502758
1.54777E-6	-53.506651
1.547815E-6	-53.537924
1.54786E-6	-53.616106
1.547905E-6	-54.086014
1.54795E-6	-55.850267
1.547995E-6	-59.473061
1.54804E-6	-65.22734
1.548085E-6	-69.746941
1.54813E-6	-70.588365
1.548175E-6	-70.064315
1.54822E-6	-67.013652
1.548265E-6	-60.696624
1.54831E-6	-46.625407
1.548355E-6	-34.855851
1.5484E-6	-30.169604
1.548445E-6	-28.368386
1.54849E-6	-27.92635
1.548535E-6	-27.856861
1.54858E-6	-27.843624
1.548625E-6	-27.870138
1.54867E-6	-28.273971
1.548715E-6	-30.267336
1.54876E-6	-35.346171
1.548805E-6	-44.48672
1.54885E-6	-55.865326
1.548895E-6	-62.113368
1.54894E-6	-67.392133
1.548985E-6	-69.586073
1.54903E-6	-70.496351
1.549075E-6	-68.535619
1.54912E-6	-61.416433
1.549165E-6	-56.434006
1.54921E-6	-54.373503
1.549255E-6	-53.693688
1.5493E-6	-53.554629
1.549345E-6	-53.542831
1.54939E-6	-53.524214
1.549435E-6	-53.524214
1.54948E-6	-53.658251
1.549525E-6	-54.57299
1.54957E-6	-57.144427
1.549615E-6	-61.749636
1.54966E-6	-67.579558
1.549705E-6	-70.332015
1.54975E-6	-70.525663
1.549795E-6	-69.251836
1.54984E-6	-64.752146
1.549885E-6	-55.912514
1.54993E-6	-39.484616
1.549975E-6	-32.231536
1.55002E-6	-29.093893
1.550065E-6	-28.077114
1.55011E-6	-27.9129
1.550155E-6	-27.896815
1.5502E-6	-27.878124
1.550245E-6	-27.907532
1.55029E-6	-28.683813
1.550335E-6	-31.430296
1.55038E-6	-38.193008
1.550425E-6	-48.741935
1.55047E-6	-58.541823
1.550515E-6	-64.068247
1.55056E-6	-68.563608
1.550605E-6	-69.913998
1.55065E-6	-70.450824
1.550695E-6	-65.556429
1.55074E-6	-59.164974
1.550785E-6	-55.343198
1.55083E-6	-53.888079
1.550875E-6	-53.527149
1.55092E-6	-53.457272
1.550965E-6	-53.431355
1.55101E-6	-53.427529
1.551055E-6	-53.444774
1.5511E-6	-53.767507
1.551145E-6	-55.237482
1.55119E-6	-58.674202
1.551235E-6	-64.012095
1.55128E-6	-69.351678
1.551325E-6	-70.674248
1.55137E-6	-70.306773
1.551415E-6	-68.395315
1.55146E-6	-62.882771
1.551505E-6	-51.018784
1.55155E-6	-36.583677
1.551595E-6	-31.156579
1.55164E-6	-28.768019
1.551685E-6	-28.113527
1.55173E-6	-28.021683
1.551775E-6	-27.986029
1.55182E-6	-27.953375
1.551865E-6	-28.155925
1.55191E-6	-29.492337
1.551955E-6	-33.417023
1.552E-6	-41.188437
1.552045E-6	-52.135325
1.55209E-6	-60.989233
1.552135E-6	-66.024076
1.55218E-6	-69.136402
1.552225E-6	-70.272882
1.55227E-6	-69.821323
1.552315E-6	-63.236723
1.55236E-6	-57.309543
1.552405E-6	-54.549404
1.55245E-6	-53.569423
1.552495E-6	-53.362991
1.55254E-6	-53.359224
1.552585E-6	-53.332013
1.55263E-6	-53.306831
1.552675E-6	-53.363933
1.55272E-6	-53.915809
1.552765E-6	-55.934598
1.55281E-6	-59.842212
1.552855E-6	-65.885487
1.5529E-6	-69.698052
1.552945E-6	-70.699684
1.55299E-6	-69.92679
1.553035E-6	-66.708056
1.55308E-6	-60.325456
1.553125E-6	-43.884891
1.55317E-6	-34.259687
1.553215E-6	-29.961088
1.55326E-6	-28.306195
1.553305E-6	-27.947956
1.55335E-6	-27.848914
1.553395E-6	-27.804155
1.55344E-6	-27.835702
1.553485E-6	-28.253588
1.55353E-6	-30.169152
1.553575E-6	-35.187007
1.55362E-6	-44.348608
1.553665E-6	-55.318004
1.55371E-6	-61.557093
1.553755E-6	-67.018021
1.5538E-6	-69.609827
1.553845E-6	-70.448898
1.55389E-6	-68.667805
1.553935E-6	-61.251704
1.55398E-6	-56.183435
1.554025E-6	-54.018664
1.55407E-6	-53.307761
1.554115E-6	-53.16953
1.55416E-6	-53.133637
1.554205E-6	-53.133637
1.55425E-6	-53.126494
1.554295E-6	-53.251389
1.55434E-6	-54.086014
1.554385E-6	-56.577748
1.55443E-6	-60.928037
1.554475E-6	-66.948637
1.55452E-6	-70.153377
1.554565E-6	-70.621813
1.55461E-6	-69.500071
1.554655E-6	-65.459177
1.5547E-6	-58.052082
1.554745E-6	-41.020981
1.55479E-6	-33.164127
1.554835E-6	-29.562449
1.55488E-6	-28.368386
1.554925E-6	-28.052082
1.55497E-6	-28.016179
1.555015E-6	-28.002448
1.55506E-6	-27.994231
1.555105E-6	-28.495506
1.55515E-6	-30.901766
1.555195E-6	-36.597542
1.55524E-6	-46.633402
1.555285E-6	-57.011469
1.55533E-6	-62.912393
1.555375E-6	-68.010681
1.55542E-6	-69.742846
1.555465E-6	-70.376307
1.55551E-6	-66.92504
1.555555E-6	-60.057269
1.5556E-6	-55.511392
1.555645E-6	-53.656235
1.55569E-6	-53.12471
1.555735E-6	-52.999889
1.55578E-6	-52.991233
1.555825E-6	-52.991233
1.55587E-6	-53.003357
1.555915E-6	-53.185778
1.55596E-6	-54.188471
1.556005E-6	-56.976691
1.55605E-6	-61.769825
1.556095E-6	-67.577071
1.55614E-6	-70.447935
1.556185E-6	-70.681355
1.55623E-6	-69.34047
1.556275E-6	-64.763836
1.55632E-6	-55.616159
1.556365E-6	-39.450041
1.55641E-6	-32.450404
1.556455E-6	-29.132843
1.5565E-6	-28.06319
1.556545E-6	-27.867479
1.55659E-6	-27.822529
1.556635E-6	-27.830428
1.55668E-6	-27.89414
1.556725E-6	-28.607508
1.55677E-6	-31.28077
1.556815E-6	-37.670039
1.55686E-6	-47.9129
1.556905E-6	-57.806775
1.55695E-6	-63.706924
1.556995E-6	-68.37137
1.55704E-6	-69.884296
1.557085E-6	-70.486625
1.55713E-6	-66.38839
1.557175E-6	-59.496202
1.55722E-6	-55.212892
1.557265E-6	-53.543813
1.55731E-6	-53.094495
1.557355E-6	-53.015515
1.5574E-6	-53.03731
1.557445E-6	-53.038184
1.55749E-6	-53.051317
1.557535E-6	-53.248635
1.55758E-6	-54.390179
1.557625E-6	-57.337683
1.55767E-6	-62.170976
1.557715E-6	-67.9588
1.55776E-6	-70.577935
1.557805E-6	-70.613302
1.55785E-6	-69.211808
1.557895E-6	-64.481842
1.55794E-6	-55.103227
1.557985E-6	-39.069287
1.55803E-6	-32.413909
1.558075E-6	-29.150664
1.55812E-6	-28.068754
1.558165E-6	-27.846268
1.55821E-6	-27.846268
1.558255E-6	-27.851562
1.5583E-6	-27.920965
1.558345E-6	-28.735439
1.55839E-6	-31.554607
1.558435E-6	-38.291518
1.55848E-6	-48.610661
1.558525E-6	-58.279812
1.55857E-6	-64.079343
1.558615E-6	-68.489367
1.55866E-6	-70.044087
1.558705E-6	-70.516359
1.55875E-6	-66.367642
1.558795E-6	-59.578184
1.55884E-6	-55.356595
1.558885E-6	-53.73044
1.55893E-6	-53.324537
1.558975E-6	-53.277174
1.55902E-6	-53.28087
1.559065E-6	-53.272558
1.55911E-6	-53.291977
1.559155E-6	-53.504704
1.5592E-6	-54.633153
1.559245E-6	-57.632109
1.55929E-6	-62.498775
1.559335E-6	-68.158766
1.55938E-6	-70.586874
1.559425E-6	-70.635365
1.55947E-6	-69.164974
1.559515E-6	-64.285241
1.55956E-6	-54.749552
1.559605E-6	-38.651856
1.55965E-6	-31.965429
1.559695E-6	-28.944898
1.55974E-6	-28.010681
1.559785E-6	-27.862167
1.55983E-6	-27.891466
1.559875E-6	-27.94525
1.55992E-6	-28.035475
1.559965E-6	-28.860566
1.56001E-6	-31.630433
1.560055E-6	-38.320922
1.5601E-6	-48.667805
1.560145E-6	-58.50473
1.56019E-6	-63.971807
1.560235E-6	-68.610661
1.56028E-6	-70.133178
1.560325E-6	-70.650977
1.56037E-6	-67.196493
1.560415E-6	-60.269646
1.56046E-6	-56.006725
1.560505E-6	-54.32268
1.56055E-6	-53.873221
1.560595E-6	-53.818473
1.56064E-6	-53.834195
1.560685E-6	-53.840499
1.56073E-6	-53.865811
1.560775E-6	-54.076012
1.56082E-6	-55.157002
1.560865E-6	-57.977842
1.56091E-6	-62.721336
1.560955E-6	-68.389316
1.561E-6	-70.692037
1.561045E-6	-70.742239
1.56109E-6	-69.453869
1.561135E-6	-65.05011
1.56118E-6	-56.008457
1.561225E-6	-39.653715
1.56127E-6	-32.327699
1.561315E-6	-29.04482
1.56136E-6	-28.013429
1.561405E-6	-27.864822
1.56145E-6	-27.87546
1.561495E-6	-27.931741
1.56154E-6	-28.041003
1.561585E-6	-28.758219
1.56163E-6	-31.320025
1.561675E-6	-37.604503
1.56172E-6	-47.723704
1.561765E-6	-57.843624
1.56181E-6	-63.509574
1.561855E-6	-68.489367
1.5619E-6	-70.106837
1.561945E-6	-70.903905
1.56199E-6	-69.065783
1.562035E-6	-61.974999
1.56208E-6	-57.318903
1.562125E-6	-55.332806
1.56217E-6	-54.743075
1.562215E-6	-54.655931
1.56226E-6	-54.659739
1.562305E-6	-54.678829
1.56235E-6	-54.732731
1.562395E-6	-54.855851
1.56244E-6	-55.676722
1.562485E-6	-58.052082
1.56253E-6	-62.288537
1.562575E-6	-67.907532
1.56262E-6	-70.642409
1.562665E-6	-71.064602
1.56271E-6	-70.098832
1.562755E-6	-66.380834
1.5628E-6	-59.492337
1.562845E-6	-42.680891
1.56289E-6	-33.681505
1.562935E-6	-29.542859
1.56298E-6	-28.079904
1.563025E-6	-27.825161
1.56307E-6	-27.85421
1.563115E-6	-27.93714
1.56316E-6	-28.054857
1.563205E-6	-28.529423
1.56325E-6	-30.622314
1.563295E-6	-35.738142
1.56334E-6	-45.486742
1.563385E-6	-56.095948
1.56343E-6	-62.219211
1.563475E-6	-67.814645
