Wavelength (nm)	Power (dBm)
1.525E-6	-95.705707
1.525045E-6	-89.812995
1.52509E-6	-92.031483
1.525135E-6	-91.624116
1.52518E-6	-93.821613
1.525225E-6	-89.058784
1.52527E-6	-91.671081
1.525315E-6	-89.578184
1.52536E-6	-88.741935
1.525405E-6	-88.024438
1.52545E-6	-94.818811
1.525495E-6	-90.470623
1.52554E-6	-88.350526
1.525585E-6	-91.087972
1.52563E-6	-88.728952
1.525675E-6	-87.554755
1.52572E-6	-86.687752
1.525765E-6	-87.991495
1.52581E-6	-100.946359
1.525855E-6	-88.523237
1.5259E-6	-85.790546
1.525945E-6	-89.419538
1.52599E-6	-120
1.526035E-6	-89.601894
1.52608E-6	-89.370422
1.526125E-6	-92.51192
1.52617E-6	-89.50782
1.526215E-6	-120
1.52626E-6	-120
1.526305E-6	-89.880069
1.52635E-6	-91.725661
1.526395E-6	-85.823623
1.52644E-6	-87.217038
1.526485E-6	-87.444863
1.52653E-6	-85.694412
1.526575E-6	-86.300424
1.52662E-6	-88.632794
1.526665E-6	-88.639139
1.52671E-6	-93.402739
1.526755E-6	-92.467234
1.5268E-6	-91.337718
1.526845E-6	-90.902835
1.52689E-6	-109.393022
1.526935E-6	-94.354523
1.52698E-6	-98.982529
1.527025E-6	-88.800846
1.52707E-6	-87.677665
1.527115E-6	-92.573534
1.52716E-6	-88.068754
1.527205E-6	-88.900841
1.52725E-6	-84.060497
1.527295E-6	-86.773673
1.52734E-6	-85.210009
1.527385E-6	-85.083582
1.52743E-6	-87.675121
1.527475E-6	-88.093882
1.52752E-6	-88.71924
1.527565E-6	-88.544928
1.52761E-6	-90.482255
1.527655E-6	-91.270284
1.5277E-6	-120
1.527745E-6	-89.284862
1.52779E-6	-120
1.527835E-6	-92.774483
1.52788E-6	-85.262212
1.527925E-6	-85.104634
1.52797E-6	-84.326207
1.528015E-6	-89.901244
1.52806E-6	-84.518564
1.528105E-6	-85.303252
1.52815E-6	-86.96372
1.528195E-6	-85.489815
1.52824E-6	-88.33866
1.528285E-6	-87.392133
1.52833E-6	-90.616304
1.528375E-6	-101.294205
1.52842E-6	-120
1.528465E-6	-92.26433
1.52851E-6	-90.63235
1.528555E-6	-93.755116
1.5286E-6	-92.914941
1.528645E-6	-87.108572
1.52869E-6	-86.567884
1.528735E-6	-85.892228
1.52878E-6	-89.476909
1.528825E-6	-85.069604
1.52887E-6	-85.710557
1.528915E-6	-85.065419
1.52896E-6	-85.831931
1.529005E-6	-86.611453
1.52905E-6	-89.419538
1.529095E-6	-88.498578
1.52914E-6	-91.458762
1.529185E-6	-90.382468
1.52923E-6	-92.634442
1.529275E-6	-93.2615
1.52932E-6	-90.89856
1.529365E-6	-92.014184
1.52941E-6	-87.535014
1.529455E-6	-86.876111
1.5295E-6	-84.296906
1.529545E-6	-84.784697
1.52959E-6	-86.736641
1.529635E-6	-83.828948
1.52968E-6	-85.511392
1.529725E-6	-86.050233
1.52977E-6	-84.910665
1.529815E-6	-86.685727
1.52986E-6	-105.326879
1.529905E-6	-88.944898
1.52995E-6	-95.752817
1.529995E-6	-120
1.53004E-6	-93.967473
1.530085E-6	-88.380334
1.53013E-6	-91.974315
1.530175E-6	-91.860856
1.53022E-6	-85.409092
1.530265E-6	-85.152732
1.53031E-6	-83.797598
1.530355E-6	-84.925489
1.5304E-6	-85.382014
1.530445E-6	-84.069356
1.53049E-6	-84.143137
1.530535E-6	-86.775739
1.53058E-6	-84.958011
1.530625E-6	-93.139002
1.53067E-6	-88.709549
1.530715E-6	-90.072698
1.53076E-6	-89.270153
1.530805E-6	-120
1.53085E-6	-91.331222
1.530895E-6	-87.309543
1.53094E-6	-91.685782
1.530985E-6	-86.647427
1.53103E-6	-85.247648
1.531075E-6	-84.317983
1.53112E-6	-83.142583
1.531165E-6	-84.535807
1.53121E-6	-84.57299
1.531255E-6	-86.414941
1.5313E-6	-85.287083
1.531345E-6	-85.58462
1.53139E-6	-86.474316
1.531435E-6	-88.951716
1.53148E-6	-90.166444
1.531525E-6	-120
1.53157E-6	-91.302404
1.531615E-6	-90.892689
1.53166E-6	-95.825283
1.531705E-6	-85.22734
1.53175E-6	-120
1.531795E-6	-85.373026
1.53184E-6	-86.407338
1.531885E-6	-84.339162
1.53193E-6	-83.574366
1.531975E-6	-85.176982
1.53202E-6	-84.89187
1.532065E-6	-84.951215
1.53211E-6	-84.72499
1.532155E-6	-84.614263
1.5322E-6	-87.715996
1.532245E-6	-90.523703
1.53229E-6	-94.243504
1.532335E-6	-88.480176
1.53238E-6	-120
1.532425E-6	-87.044329
1.53247E-6	-89.423339
1.532515E-6	-89.168559
1.53256E-6	-86.852903
1.532605E-6	-84.435769
1.53265E-6	-83.295686
1.532695E-6	-83.081232
1.53274E-6	-84.816177
1.532785E-6	-84.353339
1.53283E-6	-85.509847
1.532875E-6	-85.52842
1.53292E-6	-86.206945
1.532965E-6	-86.7305
1.53301E-6	-90.650473
1.533055E-6	-89.875846
1.5331E-6	-120
1.533145E-6	-96.857113
1.53319E-6	-90.828622
1.533235E-6	-90.884695
1.53328E-6	-88.173001
1.533325E-6	-87.652297
1.53337E-6	-85.368539
1.533415E-6	-84.264322
1.53346E-6	-85.291487
1.533505E-6	-83.768541
1.53355E-6	-85.385015
1.533595E-6	-83.678465
1.53364E-6	-85.686362
1.533685E-6	-85.958508
1.53373E-6	-87.066374
1.533775E-6	-87.520267
1.53382E-6	-120
1.533865E-6	-96.722325
1.53391E-6	-120
1.533955E-6	-88.273971
1.534E-6	-93.309622
1.534045E-6	-82.773661
1.53409E-6	-90.323584
1.534135E-6	-86.49752
1.53418E-6	-84.849213
1.534225E-6	-84.621809
1.53427E-6	-85.808707
1.534315E-6	-84.649592
1.53436E-6	-83.634118
1.534405E-6	-86.122543
1.53445E-6	-85.646335
1.534495E-6	-88.401322
1.53454E-6	-90.355047
1.534585E-6	-89.430951
1.53463E-6	-88.486301
1.534675E-6	-92.260674
1.53472E-6	-89.157813
1.534765E-6	-91.465452
1.53481E-6	-89.909743
1.534855E-6	-87.90485
1.5349E-6	-90.951222
1.534945E-6	-86.001533
1.53499E-6	-84.549404
1.535035E-6	-85.805399
1.53508E-6	-85.033471
1.535125E-6	-90.970186
1.53517E-6	-87.647241
1.535215E-6	-87.244583
1.53526E-6	-85.687971
1.535305E-6	-88.728952
1.53535E-6	-120
1.535395E-6	-92.485669
1.53544E-6	-120
1.535485E-6	-88.158766
1.53553E-6	-97.50557
1.535575E-6	-91.017686
1.53562E-6	-86.765416
1.535665E-6	-96.010189
1.53571E-6	-85.338741
1.535755E-6	-87.692957
1.5358E-6	-87.223908
1.535845E-6	-88.579235
1.53589E-6	-87.081873
1.535935E-6	-86.022337
1.53598E-6	-86.443569
1.536025E-6	-89.310724
1.53607E-6	-87.599502
1.536115E-6	-89.314431
1.53616E-6	-90.372046
1.536205E-6	-88.024438
1.53625E-6	-90.367317
1.536295E-6	-120
1.53634E-6	-95.554868
1.536385E-6	-120
1.53643E-6	-87.896815
1.536475E-6	-86.991872
1.53652E-6	-88.910969
1.536565E-6	-87.454519
1.53661E-6	-85.808707
1.536655E-6	-83.894463
1.5367E-6	-86.513058
1.536745E-6	-85.087784
1.53679E-6	-85.026556
1.536835E-6	-84.721124
1.53688E-6	-88.696662
1.536925E-6	-120
1.53697E-6	-90.526153
1.537015E-6	-95.821963
1.53706E-6	-89.75925
1.537105E-6	-88.76475
1.53715E-6	-89.519468
1.537195E-6	-89.132843
1.53724E-6	-96.131445
1.537285E-6	-90.469655
1.53733E-6	-88.178708
1.537375E-6	-86.422557
1.53742E-6	-89.172146
1.537465E-6	-86.017127
1.53751E-6	-87.311881
1.537555E-6	-87.614521
1.5376E-6	-86.252517
1.537645E-6	-91.60145
1.53769E-6	-86.944337
1.537735E-6	-90.13497
1.53778E-6	-90.329203
1.537825E-6	-88.725712
1.53787E-6	-120
1.537915E-6	-87.408842
1.53796E-6	-106.7305
1.538005E-6	-96.601512
1.53805E-6	-88.591778
1.538095E-6	-87.000571
1.53814E-6	-86.649435
1.538185E-6	-87.046529
1.53823E-6	-86.416844
1.538275E-6	-88.201611
1.53832E-6	-87.654827
1.538365E-6	-87.94525
1.53841E-6	-86.046736
1.538455E-6	-85.741399
1.5385E-6	-120
1.538545E-6	-87.986029
1.53859E-6	-93.683533
1.538635E-6	-95.503673
1.53868E-6	-120
1.538725E-6	-90.17955
1.53877E-6	-89.503944
1.538815E-6	-116.722325
1.53886E-6	-88.377344
1.538905E-6	-87.057543
1.53895E-6	-88.690233
1.538995E-6	-91.775704
1.53904E-6	-86.456994
1.539085E-6	-88.604357
1.53913E-6	-86.029295
1.539175E-6	-86.487837
1.53922E-6	-101.598312
1.539265E-6	-120
1.53931E-6	-98.972234
1.539355E-6	-92.929411
1.5394E-6	-92.848326
1.539445E-6	-92.947351
1.53949E-6	-90.730919
1.539535E-6	-97.765041
1.53958E-6	-94.640733
1.539625E-6	-89.590023
1.53967E-6	-86.653452
1.539715E-6	-85.909126
1.53976E-6	-85.425723
1.539805E-6	-86.767479
1.53985E-6	-86.571827
1.539895E-6	-88.541823
1.53994E-6	-89.318141
1.539985E-6	-86.225116
1.54003E-6	-88.099486
1.540075E-6	-89.292235
1.54012E-6	-87.594508
1.540165E-6	-120
1.54021E-6	-88.610661
1.540255E-6	-98.190144
1.5403E-6	-88.968807
1.540345E-6	-92.568039
1.54039E-6	-87.068585
1.540435E-6	-89.427144
1.54048E-6	-87.344747
1.540525E-6	-87.000571
1.54057E-6	-87.547342
1.540615E-6	-85.174122
1.54066E-6	-88.368386
1.540705E-6	-85.603516
1.54075E-6	-85.828606
1.540795E-6	-89.111554
1.54084E-6	-90.15923
1.540885E-6	-88.735439
1.54093E-6	-88.613816
1.540975E-6	-97.304871
1.54102E-6	-91.638025
1.541065E-6	-98.341624
1.54111E-6	-89.554602
1.541155E-6	-90.67577
1.5412E-6	-89.476909
1.541245E-6	-86.185239
1.54129E-6	-85.696024
1.541335E-6	-86.066003
1.54138E-6	-85.486742
1.541425E-6	-88.645493
1.54147E-6	-85.495969
1.541515E-6	-86.003263
1.54156E-6	-86.689778
1.541605E-6	-89.3968
1.54165E-6	-90.89856
1.541695E-6	-92.105603
1.54174E-6	-85.744658
1.541785E-6	-88.827287
1.54183E-6	-91.196438
1.541875E-6	-95.021033
1.54192E-6	-120
1.541965E-6	-87.92635
1.54201E-6	-85.141367
1.542055E-6	-86.441655
1.5421E-6	-86.320853
1.542145E-6	-86.655462
1.54219E-6	-87.544873
1.542235E-6	-85.939711
1.54228E-6	-85.071
1.542325E-6	-85.208568
1.54237E-6	-88.817353
1.542415E-6	-87.721133
1.54246E-6	-96.33577
1.542505E-6	-88.860566
1.54255E-6	-89.503944
1.542595E-6	-95.84359
1.54264E-6	-87.020208
1.542685E-6	-89.597934
1.54273E-6	-93.313346
1.542775E-6	-87.809397
1.54282E-6	-90.141695
1.542865E-6	-85.931193
1.54291E-6	-85.598784
1.542955E-6	-87.79369
1.543E-6	-86.905828
1.543045E-6	-85.972229
1.54309E-6	-85.638374
1.543135E-6	-89.069287
1.54318E-6	-87.657359
1.543225E-6	-88.377344
1.54327E-6	-94.647059
1.543315E-6	-93.394191
1.54336E-6	-90.570995
1.543405E-6	-120
1.54345E-6	-92.391254
1.543495E-6	-120
1.54354E-6	-88.860566
1.543585E-6	-88.458805
1.54363E-6	-85.520671
1.543675E-6	-86.905828
1.54372E-6	-85.73001
1.543765E-6	-84.643262
1.54381E-6	-87.260732
1.543855E-6	-86.35449
1.5439E-6	-86.027554
1.543945E-6	-86.320853
1.54399E-6	-88.133261
1.544035E-6	-92.917491
1.54408E-6	-90.413883
1.544125E-6	-88.989406
1.54417E-6	-86.657474
1.544215E-6	-91.435128
1.54426E-6	-89.92679
1.544305E-6	-91.487417
1.54435E-6	-87.173779
1.544395E-6	-87.527635
1.54444E-6	-86.118988
1.544485E-6	-86.36388
1.54453E-6	-84.937656
1.544575E-6	-85.670307
1.54462E-6	-84.955291
1.544665E-6	-85.855281
1.54471E-6	-85.731635
1.544755E-6	-87.160207
1.5448E-6	-87.290884
1.544845E-6	-101.573284
1.54489E-6	-120
1.544935E-6	-101.778319
1.54498E-6	-95.05011
1.545025E-6	-91.307683
1.54507E-6	-87.354183
1.545115E-6	-78.985966
1.54516E-6	-61.990081
1.545205E-6	-55.503673
1.54525E-6	-52.969667
1.545295E-6	-52.292216
1.54534E-6	-52.186755
1.545385E-6	-52.172408
1.54543E-6	-52.165252
1.545475E-6	-52.464169
1.54552E-6	-54.170281
1.545565E-6	-58.661419
1.54561E-6	-66.905828
1.545655E-6	-76.507225
1.5457E-6	-81.82633
1.545745E-6	-87.121983
1.54579E-6	-88.250684
1.545835E-6	-90.549748
1.54588E-6	-102.622509
1.545925E-6	-83.8122
1.54597E-6	-87.274622
1.546015E-6	-87.300203
1.54606E-6	-84.210172
1.546105E-6	-83.647174
1.54615E-6	-84.569258
1.546195E-6	-89.673812
1.54624E-6	-84.694161
1.546285E-6	-84.8096
1.54633E-6	-88.178708
1.546375E-6	-87.698066
1.54642E-6	-120
1.546465E-6	-88.985966
1.54651E-6	-120
1.546555E-6	-90.823895
1.5466E-6	-93.750994
1.546645E-6	-120
1.54669E-6	-96.794383
1.546735E-6	-90.214999
1.54678E-6	-85.720273
1.546825E-6	-87.731424
1.54687E-6	-87.690404
1.546915E-6	-89.072794
1.54696E-6	-86.515004
1.547005E-6	-85.194182
1.54705E-6	-86.304131
1.547095E-6	-88.04931
1.54714E-6	-86.524748
1.547185E-6	-91.79142
1.54723E-6	-86.158259
1.547275E-6	-90.185892
1.54732E-6	-91.195866
1.547365E-6	-120
1.54741E-6	-89.122186
1.547455E-6	-92.431358
1.5475E-6	-90.67577
1.547545E-6	-88.623295
1.54759E-6	-87.994231
1.547635E-6	-84.076012
1.54768E-6	-88.877302
1.547725E-6	-86.92504
1.54777E-6	-85.503673
1.547815E-6	-84.117283
1.54786E-6	-86.254349
1.547905E-6	-87.442452
1.54795E-6	-87.749493
1.547995E-6	-87.899492
1.54804E-6	-92.34257
1.548085E-6	-88.996295
1.54813E-6	-91.851533
1.548175E-6	-88.610661
1.54822E-6	-89.197344
1.548265E-6	-120
1.54831E-6	-90.085967
1.548355E-6	-88.754958
1.5484E-6	-85.699249
1.548445E-6	-85.792194
1.54849E-6	-87.695511
1.548535E-6	-86.804776
1.54858E-6	-85.55799
1.548625E-6	-84.609239
1.54867E-6	-91.259823
1.548715E-6	-85.651119
1.54876E-6	-87.554755
1.548805E-6	-85.673513
1.54885E-6	-95.9176
1.548895E-6	-120
1.54894E-6	-95.179844
1.548985E-6	-120
1.54903E-6	-96.399749
1.549075E-6	-98.817353
1.54912E-6	-90.164639
1.549165E-6	-90.778976
1.54921E-6	-88.141746
1.549255E-6	-84.66991
1.5493E-6	-87.870138
1.549345E-6	-87.086311
1.54939E-6	-85.268051
1.549435E-6	-85.800443
1.54948E-6	-84.119525
1.549525E-6	-85.31505
1.54957E-6	-88.955129
1.549615E-6	-91.577653
1.54966E-6	-90.987597
1.549705E-6	-93.431355
1.54975E-6	-102.191788
1.549795E-6	-86.201508
1.54984E-6	-94.799097
1.549885E-6	-83.876401
1.54993E-6	-68.732194
1.549975E-6	-57.619539
1.55002E-6	-53.771645
1.550065E-6	-52.356744
1.55011E-6	-52.068385
1.550155E-6	-52.023863
1.5502E-6	-52.014875
1.550245E-6	-52.080989
1.55029E-6	-52.751509
1.550335E-6	-55.332806
1.55038E-6	-61.070154
1.550425E-6	-70.247521
1.55047E-6	-78.452718
1.550515E-6	-85.158426
1.55056E-6	-90.236042
1.550605E-6	-87.637147
1.55065E-6	-88.404328
1.550695E-6	-93.337629
1.55074E-6	-90.382468
1.550785E-6	-89.303319
1.55083E-6	-86.93575
1.550875E-6	-86.304131
1.55092E-6	-86.513058
1.550965E-6	-83.87534
1.55101E-6	-86.786087
1.551055E-6	-85.692801
1.5511E-6	-86.897316
1.551145E-6	-87.022395
1.55119E-6	-90.440238
1.551235E-6	-88.642315
1.55128E-6	-120
1.551325E-6	-95.660702
1.55137E-6	-91.435732
1.551415E-6	-91.86419
1.55146E-6	-94.616777
1.551505E-6	-87.9129
1.55155E-6	-94.810914
1.551595E-6	-89.226321
1.55164E-6	-84.325031
1.551685E-6	-85.632015
1.55173E-6	-85.249102
1.551775E-6	-85.550189
1.55182E-6	-86.031036
1.551865E-6	-85.003129
1.55191E-6	-85.568935
1.551955E-6	-87.87546
1.552E-6	-87.361273
1.552045E-6	-87.244583
1.55209E-6	-87.537477
1.552135E-6	-120
1.55218E-6	-120
1.552225E-6	-87.498241
1.55227E-6	-90.298857
1.552315E-6	-89.574245
1.55236E-6	-89.905491
1.552405E-6	-87.13319
1.55245E-6	-85.606673
1.552495E-6	-85.756084
1.55254E-6	-85.09199
1.552585E-6	-85.999804
1.55263E-6	-87.070797
1.552675E-6	-83.771645
1.55272E-6	-83.989183
1.552765E-6	-86.122543
1.55281E-6	-86.944337
1.552855E-6	-87.053134
1.5529E-6	-120
1.552945E-6	-120
1.55299E-6	-89.266483
1.553035E-6	-90.044526
1.55308E-6	-90.319375
1.553125E-6	-120
1.55317E-6	-88.951716
1.553215E-6	-85.841923
1.55326E-6	-86.414941
1.553305E-6	-85.22011
1.55335E-6	-85.149888
1.553395E-6	-87.833064
1.55344E-6	-85.443939
1.553485E-6	-85.949953
1.55353E-6	-84.704413
1.553575E-6	-89.143527
1.55362E-6	-85.380515
1.553665E-6	-86.91009
1.55371E-6	-88.495506
1.553755E-6	-120
1.5538E-6	-88.671002
1.553845E-6	-91.240132
1.55389E-6	-91.959969
1.553935E-6	-87.677665
1.55398E-6	-91.379879
1.554025E-6	-86.548224
1.55407E-6	-88.021683
1.554115E-6	-87.191941
1.55416E-6	-85.331324
1.554205E-6	-85.759355
1.55425E-6	-84.508741
1.554295E-6	-84.652126
1.55434E-6	-88.113527
1.554385E-6	-87.562181
1.55443E-6	-90.748943
1.554475E-6	-87.552282
1.55452E-6	-89.079815
1.554565E-6	-88.443604
1.55461E-6	-88.068754
1.554655E-6	-120
1.5547E-6	-99.653715
1.554745E-6	-100.731947
1.55479E-6	-94.561802
1.554835E-6	-85.616159
1.55488E-6	-85.43027
1.554925E-6	-86.252517
1.55497E-6	-86.888822
1.555015E-6	-84.403327
1.55506E-6	-86.806857
1.555105E-6	-85.276825
1.55515E-6	-86.35449
1.555195E-6	-86.857113
1.55524E-6	-89.825493
1.555285E-6	-91.527359
1.55533E-6	-91.337127
1.555375E-6	-89.446217
1.55542E-6	-89.04482
1.555465E-6	-90.082425
1.55551E-6	-101.198154
1.555555E-6	-120
1.5556E-6	-85.030704
1.555645E-6	-84.914703
1.55569E-6	-87.554755
1.555735E-6	-84.885177
1.55578E-6	-84.179366
1.555825E-6	-85.347659
1.55587E-6	-86.147513
1.555915E-6	-86.223296
1.55596E-6	-85.659104
1.556005E-6	-87.153437
1.55605E-6	-88.368386
1.556095E-6	-88.541823
1.55614E-6	-101.445414
1.556185E-6	-91.271448
1.55623E-6	-89.041335
1.556275E-6	-100.502685
1.55632E-6	-98.674202
1.556365E-6	-90.166444
1.55641E-6	-84.667365
1.556455E-6	-88.972234
1.5565E-6	-87.392133
1.556545E-6	-85.934598
1.55659E-6	-84.681381
1.556635E-6	-85.485206
1.55668E-6	-85.087784
1.556725E-6	-84.771647
1.55677E-6	-86.639407
1.556815E-6	-86.458916
1.55686E-6	-93.198459
1.556905E-6	-97.872798
1.55695E-6	-87.754669
1.556995E-6	-120
1.55704E-6	-89.880069
1.557085E-6	-120
1.55713E-6	-89.858997
1.557175E-6	-93.33482
1.55722E-6	-89.284862
1.557265E-6	-88.057633
1.55731E-6	-83.73557
1.557355E-6	-86.569855
1.5574E-6	-85.936302
1.557445E-6	-84.943075
1.55749E-6	-85.812017
1.557535E-6	-87.347104
1.55758E-6	-84.589202
1.557625E-6	-86.482037
1.55767E-6	-120
1.557715E-6	-88.601209
1.55776E-6	-89.284862
1.557805E-6	-120
1.55785E-6	-94.131877
1.557895E-6	-90.347983
1.55794E-6	-91.19015
1.557985E-6	-120
1.55803E-6	-91.07349
1.558075E-6	-85.233133
1.55812E-6	-84.719837
1.558165E-6	-84.436975
1.55821E-6	-83.841551
1.558255E-6	-85.016894
1.5583E-6	-85.225893
1.558345E-6	-86.115435
1.55839E-6	-80.87406
1.558435E-6	-88.065971
1.55848E-6	-120
1.558525E-6	-88.880657
1.55857E-6	-89.779843
1.558615E-6	-89.108016
1.55866E-6	-91.632962
1.558705E-6	-120
1.55875E-6	-93.604139
1.558795E-6	-86.561977
1.55884E-6	-86.032777
1.558885E-6	-88.471004
1.55893E-6	-85.270973
1.558975E-6	-86.352614
1.55902E-6	-83.909395
1.559065E-6	-86.850799
1.55911E-6	-85.097605
1.559155E-6	-84.789927
1.5592E-6	-86.556077
1.559245E-6	-86.978856
1.55929E-6	-86.701955
1.559335E-6	-88.951716
1.55938E-6	-90.093504
1.559425E-6	-88.585502
1.55947E-6	-87.604503
1.559515E-6	-91.025379
1.55956E-6	-91.336536
1.559605E-6	-87.081873
1.55965E-6	-87.000571
1.559695E-6	-87.097427
1.55974E-6	-84.765137
1.559785E-6	-88.093882
1.55983E-6	-84.217047
1.559875E-6	-86.556077
1.55992E-6	-84.877159
1.559965E-6	-85.536182
1.56001E-6	-86.143937
1.560055E-6	-92.601113
1.5601E-6	-87.814645
1.560145E-6	-88.944898
1.56019E-6	-120
1.560235E-6	-96.420652
1.56028E-6	-90.858685
1.560325E-6	-90.151128
1.56037E-6	-89.400581
1.560415E-6	-87.396901
1.56046E-6	-120
1.560505E-6	-86.281935
1.56055E-6	-87.198771
1.560595E-6	-86.710091
1.56064E-6	-86.501399
1.560685E-6	-83.87428
1.56073E-6	-85.782316
1.560775E-6	-85.934598
1.56082E-6	-87.700623
1.560865E-6	-89.842212
1.56091E-6	-92.288537
1.560955E-6	-120
1.561E-6	-93.521282
1.561045E-6	-91.134529
1.56109E-6	-102.804201
1.561135E-6	-120
1.56118E-6	-93.292904
1.561225E-6	-102.540668
1.56127E-6	-86.35449
1.561315E-6	-85.502132
1.56136E-6	-89.172146
1.561405E-6	-86.212388
1.56145E-6	-85.58462
1.561495E-6	-84.561802
1.56154E-6	-87.13319
1.561585E-6	-84.722412
1.56163E-6	-84.93495
1.561675E-6	-86.22876
1.56172E-6	-91.118205
1.561765E-6	-89.069287
1.56181E-6	-91.106423
1.561855E-6	-95.583049
1.5619E-6	-88.239087
1.561945E-6	-89.182927
1.56199E-6	-120
1.562035E-6	-89.097419
1.56208E-6	-88.256494
1.562125E-6	-87.56962
1.56217E-6	-87.827793
1.562215E-6	-88.320922
1.56226E-6	-86.300424
1.562305E-6	-87.664962
1.56235E-6	-86.280091
1.562395E-6	-86.765416
1.56244E-6	-85.865326
1.562485E-6	-87.870138
1.56253E-6	-96.40544
1.562575E-6	-89.965395
1.56262E-6	-120
1.562665E-6	-90.578927
1.56271E-6	-86.693833
1.562755E-6	-94.849213
1.5628E-6	-89.240882
1.562845E-6	-99.270153
1.56289E-6	-86.838199
1.562935E-6	-93.176744
1.56298E-6	-89.689957
1.563025E-6	-91.988708
1.56307E-6	-87.966951
1.563115E-6	-86.78816
1.56316E-6	-90.015663
1.563205E-6	-85.149888
1.56325E-6	-87.619539
1.563295E-6	-86.703988
1.56334E-6	-87.230789
1.563385E-6	-88.294449
1.56343E-6	-87.827793
1.563475E-6	-89.37418
1.56352E-6	-120
1.563565E-6	-92.071882
1.56361E-6	-88.241984
1.563655E-6	-92.499547
1.5637E-6	-86.074789
1.563745E-6	-88.53252
1.56379E-6	-86.5267
1.563835E-6	-87.210179
1.56388E-6	-88.207355
1.563925E-6	-88.08549
1.56397E-6	-88.10229
1.564015E-6	-85.439378
1.56406E-6	-88.471004
1.564105E-6	-88.024438
