Wavelength (nm)	Power (dBm)
1.525E-6	-49.086848
1.525045E-6	-48.996295
1.52509E-6	-48.90759
1.525135E-6	-48.804142
1.52518E-6	-48.703101
1.525225E-6	-48.601209
1.52527E-6	-48.513973
1.525315E-6	-48.410347
1.52536E-6	-48.332739
1.525405E-6	-48.256494
1.52545E-6	-48.167302
1.525495E-6	-48.091083
1.52554E-6	-48.002448
1.525585E-6	-47.931741
1.52563E-6	-47.851562
1.525675E-6	-47.762445
1.52572E-6	-47.682756
1.525765E-6	-47.602002
1.52581E-6	-47.530093
1.525855E-6	-47.476325
1.5259E-6	-47.401673
1.525945E-6	-47.321246
1.52599E-6	-47.258422
1.526035E-6	-47.178312
1.52608E-6	-47.119745
1.526125E-6	-47.084092
1.52617E-6	-47.007107
1.526215E-6	-46.944337
1.52626E-6	-46.852903
1.526305E-6	-46.802695
1.52635E-6	-46.753061
1.526395E-6	-46.708056
1.52644E-6	-46.633402
1.526485E-6	-46.561977
1.52653E-6	-46.513058
1.526575E-6	-46.478175
1.52662E-6	-46.413039
1.526665E-6	-46.380834
1.52671E-6	-46.298572
1.526755E-6	-46.27088
1.5268E-6	-46.219657
1.526845E-6	-46.161846
1.52689E-6	-46.140364
1.526935E-6	-46.076548
1.52698E-6	-46.018863
1.527025E-6	-45.991168
1.52707E-6	-45.948245
1.527115E-6	-45.934598
1.52716E-6	-45.870357
1.527205E-6	-45.808707
1.52725E-6	-45.779028
1.527295E-6	-45.757719
1.52734E-6	-45.73001
1.527385E-6	-45.692801
1.52743E-6	-45.660702
1.527475E-6	-45.635193
1.52752E-6	-45.595632
1.527565E-6	-45.57677
1.52761E-6	-45.578339
1.527655E-6	-45.525319
1.5277E-6	-45.503673
1.527745E-6	-45.477534
1.52779E-6	-45.427238
1.527835E-6	-45.424209
1.52788E-6	-45.404567
1.527925E-6	-45.382014
1.52797E-6	-45.350636
1.528015E-6	-45.326879
1.52806E-6	-45.322439
1.528105E-6	-45.32836
1.52815E-6	-45.307673
1.528195E-6	-45.281218
1.52824E-6	-45.244741
1.528285E-6	-45.26659
1.52833E-6	-45.22734
1.528375E-6	-45.249102
1.52842E-6	-45.204247
1.528465E-6	-45.210009
1.52851E-6	-45.16698
1.528555E-6	-45.176982
1.5286E-6	-45.199931
1.528645E-6	-45.149888
1.52869E-6	-45.175552
1.528735E-6	-45.128616
1.52878E-6	-45.134278
1.528825E-6	-45.104634
1.52887E-6	-45.110265
1.528915E-6	-45.124374
1.52896E-6	-45.087784
1.529005E-6	-45.101821
1.52905E-6	-45.108856
1.529095E-6	-45.09199
1.52914E-6	-45.079384
1.529185E-6	-45.087784
1.52923E-6	-45.087784
1.529275E-6	-45.073793
1.52932E-6	-45.09199
1.529365E-6	-45.097605
1.52941E-6	-45.073793
1.529455E-6	-45.0515
1.5295E-6	-45.055671
1.529545E-6	-45.076587
1.52959E-6	-45.080783
1.529635E-6	-45.083582
1.52968E-6	-45.064026
1.529725E-6	-45.057062
1.52977E-6	-45.057062
1.529815E-6	-45.072396
1.52986E-6	-45.084982
1.529905E-6	-45.089186
1.52995E-6	-45.096201
1.529995E-6	-45.068209
1.53004E-6	-45.094797
1.530085E-6	-45.087784
1.53013E-6	-45.07519
1.530175E-6	-45.069604
1.53022E-6	-45.080783
1.530265E-6	-45.064026
1.53031E-6	-45.048721
1.530355E-6	-45.079384
1.5304E-6	-45.089186
1.530445E-6	-45.083582
1.53049E-6	-45.07519
1.530535E-6	-45.080783
1.53058E-6	-45.121549
1.530625E-6	-45.122961
1.53067E-6	-45.115903
1.530715E-6	-45.142786
1.53076E-6	-45.121549
1.530805E-6	-45.130031
1.53085E-6	-45.142786
1.530895E-6	-45.168408
1.53094E-6	-45.174122
1.530985E-6	-45.137112
1.53103E-6	-45.15985
1.531075E-6	-45.142786
1.53112E-6	-45.176982
1.531165E-6	-45.182708
1.53121E-6	-45.178413
1.531255E-6	-45.172693
1.5313E-6	-45.192746
1.531345E-6	-45.198493
1.53139E-6	-45.22734
1.531435E-6	-45.241836
1.53148E-6	-45.233133
1.531525E-6	-45.246194
1.53157E-6	-45.250557
1.531615E-6	-45.26513
1.53166E-6	-45.282683
1.531705E-6	-45.290018
1.53175E-6	-45.310622
1.531795E-6	-45.291487
1.53184E-6	-45.31505
1.531885E-6	-45.318004
1.53193E-6	-45.343198
1.531975E-6	-45.334289
1.53202E-6	-45.367044
1.532065E-6	-45.377518
1.53211E-6	-45.388017
1.532155E-6	-45.413622
1.5322E-6	-45.433304
1.532245E-6	-45.442418
1.53229E-6	-45.474469
1.532335E-6	-45.4546
1.53238E-6	-45.482136
1.532425E-6	-45.525319
1.53247E-6	-45.503673
1.532515E-6	-45.520671
1.53256E-6	-45.554868
1.532605E-6	-45.554868
1.53265E-6	-45.581478
1.532695E-6	-45.598784
1.53274E-6	-45.611413
1.532785E-6	-45.632015
1.53283E-6	-45.633604
1.532875E-6	-45.702477
1.53292E-6	-45.691191
1.532965E-6	-45.702477
1.53301E-6	-45.717032
1.533055E-6	-45.75445
1.5331E-6	-45.783961
1.533145E-6	-45.795491
1.53319E-6	-45.823623
1.533235E-6	-45.828606
1.53328E-6	-45.83859
1.533325E-6	-45.878756
1.53337E-6	-45.89729
1.533415E-6	-45.9176
1.53346E-6	-45.938006
1.533505E-6	-45.943122
1.53355E-6	-45.936302
1.533595E-6	-45.975667
1.53364E-6	-46.017127
1.533685E-6	-46.053732
1.53373E-6	-46.064248
1.533775E-6	-46.08712
1.53382E-6	-46.094181
1.533865E-6	-46.13501
1.53391E-6	-46.172627
1.533955E-6	-46.188849
1.534E-6	-46.199698
1.534045E-6	-46.232406
1.53409E-6	-46.239708
1.534135E-6	-46.309698
1.53418E-6	-46.322715
1.534225E-6	-46.318991
1.53427E-6	-46.324577
1.534315E-6	-46.371407
1.53436E-6	-46.373291
1.534405E-6	-46.435917
1.53445E-6	-46.434006
1.534495E-6	-46.472388
1.53454E-6	-46.476245
1.534585E-6	-46.513058
1.53463E-6	-46.558043
1.534675E-6	-46.583677
1.53472E-6	-46.587634
1.534765E-6	-46.615435
1.53481E-6	-46.645421
1.534855E-6	-46.657474
1.5349E-6	-46.663512
1.534945E-6	-46.675615
1.53499E-6	-46.691805
1.535035E-6	-46.728455
1.53508E-6	-46.74074
1.535125E-6	-46.757175
1.53517E-6	-46.808939
1.535215E-6	-46.819367
1.53526E-6	-46.846595
1.535305E-6	-46.861328
1.53535E-6	-46.914356
1.535395E-6	-46.890944
1.53544E-6	-46.931463
1.535485E-6	-46.944337
1.53553E-6	-46.948637
1.535575E-6	-46.987529
1.53562E-6	-47.024583
1.535665E-6	-47.026773
1.53571E-6	-47.050931
1.535755E-6	-47.053134
1.5358E-6	-47.095202
1.535845E-6	-47.057543
1.53589E-6	-47.119745
1.535935E-6	-47.10411
1.53598E-6	-47.124222
1.536025E-6	-47.153437
1.53607E-6	-47.146678
1.536115E-6	-47.20105
1.53616E-6	-47.205612
1.536205E-6	-47.210179
1.53625E-6	-47.244583
1.536295E-6	-47.221617
1.53634E-6	-47.242281
1.536385E-6	-47.279262
1.53643E-6	-47.288557
1.536475E-6	-47.295541
1.53652E-6	-47.279262
1.536565E-6	-47.274622
1.53661E-6	-47.300203
1.536655E-6	-47.330631
1.5367E-6	-47.33298
1.536745E-6	-47.340036
1.53679E-6	-47.347104
1.536835E-6	-47.380238
1.53688E-6	-47.399286
1.536925E-6	-47.406451
1.53697E-6	-47.392133
1.537015E-6	-47.399286
1.53706E-6	-47.418418
1.537105E-6	-47.413627
1.53715E-6	-47.430418
1.537195E-6	-47.418418
1.53724E-6	-47.444863
1.537285E-6	-47.442452
1.53733E-6	-47.452103
1.537375E-6	-47.452103
1.53742E-6	-47.432823
1.537465E-6	-47.425614
1.53751E-6	-47.449688
1.537555E-6	-47.447275
1.5376E-6	-47.461776
1.537645E-6	-47.476325
1.53769E-6	-47.4958
1.537735E-6	-47.476325
1.53778E-6	-47.476325
1.537825E-6	-47.481185
1.53787E-6	-47.490923
1.537915E-6	-47.530093
1.53796E-6	-47.493361
1.538005E-6	-47.512913
1.53805E-6	-47.486051
1.538095E-6	-47.461776
1.53814E-6	-47.464197
1.538185E-6	-47.478754
1.53823E-6	-47.476325
1.538275E-6	-47.459355
1.53832E-6	-47.456937
1.538365E-6	-47.476325
1.53841E-6	-47.476325
1.538455E-6	-47.530093
1.5385E-6	-47.50557
1.538545E-6	-47.508016
1.53859E-6	-47.508016
1.538635E-6	-47.486051
1.53868E-6	-47.498241
1.538725E-6	-47.515363
1.53877E-6	-47.500682
1.538815E-6	-47.473897
1.53886E-6	-47.481185
1.538905E-6	-47.473897
1.53895E-6	-47.478754
1.538995E-6	-47.473897
1.53904E-6	-47.473897
1.539085E-6	-47.459355
1.53913E-6	-47.473897
1.539175E-6	-47.452103
1.53922E-6	-47.452103
1.539265E-6	-47.473897
1.53931E-6	-47.47147
1.539355E-6	-47.473897
1.5394E-6	-47.490923
1.539445E-6	-47.486051
1.53949E-6	-47.483618
1.539535E-6	-47.486051
1.53958E-6	-47.444863
1.539625E-6	-47.428016
1.53967E-6	-47.435228
1.539715E-6	-47.432823
1.53976E-6	-47.440043
1.539805E-6	-47.413627
1.53985E-6	-47.411234
1.539895E-6	-47.408842
1.53994E-6	-47.447275
1.539985E-6	-47.418418
1.54003E-6	-47.428016
1.540075E-6	-47.423214
1.54012E-6	-47.430418
1.540165E-6	-47.411234
1.54021E-6	-47.425614
1.540255E-6	-47.425614
1.5403E-6	-47.428016
1.540345E-6	-47.399286
1.54039E-6	-47.387371
1.540435E-6	-47.377863
1.54048E-6	-47.384992
1.540525E-6	-47.366007
1.54057E-6	-47.368375
1.540615E-6	-47.342391
1.54066E-6	-47.33298
1.540705E-6	-47.356545
1.54075E-6	-47.363639
1.540795E-6	-47.363639
1.54084E-6	-47.366007
1.540885E-6	-47.342391
1.54093E-6	-47.375489
1.540975E-6	-47.366007
1.54102E-6	-47.377863
1.541065E-6	-47.373117
1.54111E-6	-47.358908
1.541155E-6	-47.356545
1.5412E-6	-47.33298
1.541245E-6	-47.316561
1.54129E-6	-47.330631
1.541335E-6	-47.318903
1.54138E-6	-47.32359
1.541425E-6	-47.288557
1.54147E-6	-47.293212
1.541515E-6	-47.288557
1.54156E-6	-47.302536
1.541605E-6	-47.293212
1.54165E-6	-47.288557
1.541695E-6	-47.307206
1.54174E-6	-47.309543
1.541785E-6	-47.304871
1.54183E-6	-47.290884
1.541875E-6	-47.297871
1.54192E-6	-47.279262
1.541965E-6	-47.267672
1.54201E-6	-47.290884
1.542055E-6	-47.242281
1.5421E-6	-47.260732
1.542145E-6	-47.2262
1.54219E-6	-47.242281
1.542235E-6	-47.221617
1.54228E-6	-47.233085
1.542325E-6	-47.217038
1.54237E-6	-47.217038
1.542415E-6	-47.233085
1.54246E-6	-47.256112
1.542505E-6	-47.246886
1.54255E-6	-47.260732
1.542595E-6	-47.230789
1.54264E-6	-47.258422
1.542685E-6	-47.23768
1.54273E-6	-47.235382
1.542775E-6	-47.235382
1.54282E-6	-47.219327
1.542865E-6	-47.196493
1.54291E-6	-47.194216
1.542955E-6	-47.207895
1.543E-6	-47.20105
1.543045E-6	-47.20105
1.54309E-6	-47.203331
1.543135E-6	-47.212464
1.54318E-6	-47.203331
1.543225E-6	-47.230789
1.54327E-6	-47.242281
1.543315E-6	-47.244583
1.54336E-6	-47.230789
1.543405E-6	-47.212464
1.54345E-6	-47.194216
1.543495E-6	-47.253804
1.54354E-6	-47.256112
1.543585E-6	-47.21475
1.54363E-6	-47.171514
1.543675E-6	-47.176045
1.54372E-6	-47.173779
1.543765E-6	-47.180581
1.54381E-6	-47.21475
1.543855E-6	-47.205612
1.5439E-6	-47.171514
1.543945E-6	-47.173779
1.54399E-6	-47.196493
1.544035E-6	-47.217038
1.54408E-6	-47.219327
1.544125E-6	-47.219327
1.54417E-6	-47.23998
1.544215E-6	-47.219327
1.54426E-6	-47.233085
1.544305E-6	-47.221617
1.54435E-6	-47.221617
1.544395E-6	-47.212464
1.54444E-6	-47.194216
1.544485E-6	-47.185121
1.54453E-6	-47.185121
1.544575E-6	-47.203331
1.54462E-6	-47.242281
1.544665E-6	-47.20105
1.54471E-6	-47.205612
1.544755E-6	-47.21475
1.5448E-6	-47.251497
1.544845E-6	-47.233085
1.54489E-6	-47.251497
1.544935E-6	-47.244583
1.54498E-6	-47.246886
1.545025E-6	-47.2262
1.54507E-6	-47.23998
1.545115E-6	-46.293019
1.54516E-6	-40.118872
1.545205E-6	-35.62091
1.54525E-6	-33.367704
1.545295E-6	-32.782718
1.54534E-6	-32.685724
1.545385E-6	-32.680086
1.54543E-6	-32.620921
1.545475E-6	-32.942218
1.54552E-6	-34.714689
1.545565E-6	-39.020489
1.54561E-6	-44.871822
1.545655E-6	-47.000571
1.5457E-6	-47.228494
1.545745E-6	-47.265357
1.54579E-6	-47.274622
1.545835E-6	-47.297871
1.54588E-6	-47.300203
1.545925E-6	-47.267672
1.54597E-6	-47.274622
1.546015E-6	-47.260732
1.54606E-6	-47.279262
1.546105E-6	-47.260732
1.54615E-6	-47.272304
1.546195E-6	-47.256112
1.54624E-6	-47.281584
1.546285E-6	-47.274622
1.54633E-6	-47.290884
1.546375E-6	-47.302536
1.54642E-6	-47.311881
1.546465E-6	-47.316561
1.54651E-6	-47.321246
1.546555E-6	-47.325936
1.5466E-6	-47.340036
1.546645E-6	-47.361273
1.54669E-6	-47.342391
1.546735E-6	-47.316561
1.54678E-6	-47.311881
1.546825E-6	-47.31422
1.54687E-6	-47.31422
1.546915E-6	-47.295541
1.54696E-6	-47.297871
1.547005E-6	-47.311881
1.54705E-6	-47.318903
1.547095E-6	-47.325936
1.54714E-6	-47.349462
1.547185E-6	-47.358908
1.54723E-6	-47.349462
1.547275E-6	-47.363639
1.54732E-6	-47.33298
1.547365E-6	-47.373117
1.54741E-6	-47.387371
1.547455E-6	-47.377863
1.5475E-6	-47.368375
1.547545E-6	-47.363639
1.54759E-6	-47.33298
1.547635E-6	-47.340036
1.54768E-6	-47.33298
1.547725E-6	-47.351822
1.54777E-6	-47.344747
1.547815E-6	-47.342391
1.54786E-6	-47.342391
1.547905E-6	-47.358908
1.54795E-6	-47.389752
1.547995E-6	-47.401673
1.54804E-6	-47.392133
1.548085E-6	-47.392133
1.54813E-6	-47.396901
1.548175E-6	-47.420815
1.54822E-6	-47.413627
1.548265E-6	-47.430418
1.54831E-6	-47.394516
1.548355E-6	-47.380238
1.5484E-6	-47.384992
1.548445E-6	-47.389752
1.54849E-6	-47.396901
1.548535E-6	-47.380238
1.54858E-6	-47.380238
1.548625E-6	-47.382615
1.54867E-6	-47.389752
1.548715E-6	-47.392133
1.54876E-6	-47.380238
1.548805E-6	-47.389752
1.54885E-6	-47.425614
1.548895E-6	-47.428016
1.54894E-6	-47.425614
1.548985E-6	-47.447275
1.54903E-6	-47.428016
1.549075E-6	-47.430418
1.54912E-6	-47.401673
1.549165E-6	-47.418418
1.54921E-6	-47.396901
1.549255E-6	-47.396901
1.5493E-6	-47.373117
1.549345E-6	-47.373117
1.54939E-6	-47.373117
1.549435E-6	-47.375489
1.54948E-6	-47.387371
1.549525E-6	-47.399286
1.54957E-6	-47.411234
1.549615E-6	-47.423214
1.54966E-6	-47.425614
1.549705E-6	-47.428016
1.54975E-6	-47.432823
1.549795E-6	-47.418418
1.54984E-6	-47.394516
1.549885E-6	-47.302536
1.54993E-6	-44.390179
1.549975E-6	-37.2262
1.55002E-6	-33.595186
1.550065E-6	-32.362726
1.55011E-6	-32.16025
1.550155E-6	-32.085199
1.5502E-6	-32.071183
1.550245E-6	-32.180293
1.55029E-6	-32.795099
1.550335E-6	-35.410601
1.55038E-6	-40.719628
1.550425E-6	-46.341378
1.55047E-6	-47.279262
1.550515E-6	-47.392133
1.55056E-6	-47.404061
1.550605E-6	-47.399286
1.55065E-6	-47.416022
1.550695E-6	-47.423214
1.55074E-6	-47.413627
1.550785E-6	-47.399286
1.55083E-6	-47.377863
1.550875E-6	-47.375489
1.55092E-6	-47.342391
1.550965E-6	-47.370745
1.55101E-6	-47.361273
1.551055E-6	-47.375489
1.5511E-6	-47.370745
1.551145E-6	-47.361273
1.55119E-6	-47.373117
1.551235E-6	-47.394516
1.55128E-6	-47.416022
1.551325E-6	-47.387371
1.55137E-6	-47.392133
1.551415E-6	-47.394516
1.55146E-6	-47.401673
1.551505E-6	-47.399286
1.55155E-6	-47.413627
1.551595E-6	-47.344747
1.55164E-6	-47.349462
1.551685E-6	-47.325936
1.55173E-6	-47.344747
1.551775E-6	-47.344747
1.55182E-6	-47.349462
1.551865E-6	-47.351822
1.55191E-6	-47.335331
1.551955E-6	-47.361273
1.552E-6	-47.368375
1.552045E-6	-47.401673
1.55209E-6	-47.406451
1.552135E-6	-47.377863
1.55218E-6	-47.375489
1.552225E-6	-47.377863
1.55227E-6	-47.401673
1.552315E-6	-47.392133
1.55236E-6	-47.349462
1.552405E-6	-47.342391
1.55245E-6	-47.318903
1.552495E-6	-47.309543
1.55254E-6	-47.328283
1.552585E-6	-47.33298
1.55263E-6	-47.32359
1.552675E-6	-47.311881
1.55272E-6	-47.316561
1.552765E-6	-47.33298
1.55281E-6	-47.358908
1.552855E-6	-47.368375
1.5529E-6	-47.344747
1.552945E-6	-47.358908
1.55299E-6	-47.358908
1.553035E-6	-47.361273
1.55308E-6	-47.363639
1.553125E-6	-47.342391
1.55317E-6	-47.330631
1.553215E-6	-47.32359
1.55326E-6	-47.293212
1.553305E-6	-47.309543
1.55335E-6	-47.302536
1.553395E-6	-47.309543
1.55344E-6	-47.293212
1.553485E-6	-47.297871
1.55353E-6	-47.290884
1.553575E-6	-47.328283
1.55362E-6	-47.328283
1.553665E-6	-47.351822
1.55371E-6	-47.337683
1.553755E-6	-47.380238
1.5538E-6	-47.342391
1.553845E-6	-47.328283
1.55389E-6	-47.347104
1.553935E-6	-47.344747
1.55398E-6	-47.295541
1.554025E-6	-47.307206
1.55407E-6	-47.293212
1.554115E-6	-47.290884
1.55416E-6	-47.279262
1.554205E-6	-47.281584
1.55425E-6	-47.276942
1.554295E-6	-47.272304
1.55434E-6	-47.293212
1.554385E-6	-47.316561
1.55443E-6	-47.316561
1.554475E-6	-47.325936
1.55452E-6	-47.32359
1.554565E-6	-47.31422
1.55461E-6	-47.347104
1.554655E-6	-47.349462
1.5547E-6	-47.321246
1.554745E-6	-47.304871
1.55479E-6	-47.302536
1.554835E-6	-47.295541
1.55488E-6	-47.272304
1.554925E-6	-47.272304
1.55497E-6	-47.269987
1.555015E-6	-47.283907
1.55506E-6	-47.251497
1.555105E-6	-47.260732
1.55515E-6	-47.281584
1.555195E-6	-47.293212
1.55524E-6	-47.295541
1.555285E-6	-47.318903
1.55533E-6	-47.316561
1.555375E-6	-47.316561
1.55542E-6	-47.335331
1.555465E-6	-47.32359
1.55551E-6	-47.288557
1.555555E-6	-47.302536
1.5556E-6	-47.263044
1.555645E-6	-47.283907
1.55569E-6	-47.265357
1.555735E-6	-47.246886
1.55578E-6	-47.235382
1.555825E-6	-47.23768
1.55587E-6	-47.258422
1.555915E-6	-47.267672
1.55596E-6	-47.263044
1.556005E-6	-47.286231
1.55605E-6	-47.293212
1.556095E-6	-47.283907
1.55614E-6	-47.311881
1.556185E-6	-47.31422
1.55623E-6	-47.304871
1.556275E-6	-47.293212
1.55632E-6	-47.286231
1.556365E-6	-47.295541
1.55641E-6	-47.272304
1.556455E-6	-47.251497
1.5565E-6	-47.249191
1.556545E-6	-47.249191
1.55659E-6	-47.244583
1.556635E-6	-47.253804
1.55668E-6	-47.272304
1.556725E-6	-47.251497
1.55677E-6	-47.274622
1.556815E-6	-47.272304
1.55686E-6	-47.300203
1.556905E-6	-47.300203
1.55695E-6	-47.330631
1.556995E-6	-47.33298
1.55704E-6	-47.325936
1.557085E-6	-47.307206
1.55713E-6	-47.318903
1.557175E-6	-47.335331
1.55722E-6	-47.307206
1.557265E-6	-47.304871
1.55731E-6	-47.288557
1.557355E-6	-47.260732
1.5574E-6	-47.267672
1.557445E-6	-47.286231
1.55749E-6	-47.288557
1.557535E-6	-47.279262
1.55758E-6	-47.272304
1.557625E-6	-47.321246
1.55767E-6	-47.340036
1.557715E-6	-47.361273
1.55776E-6	-47.370745
1.557805E-6	-47.351822
1.55785E-6	-47.349462
1.557895E-6	-47.344747
1.55794E-6	-47.366007
1.557985E-6	-47.347104
1.55803E-6	-47.340036
1.558075E-6	-47.328283
1.55812E-6	-47.318903
1.558165E-6	-47.31422
1.55821E-6	-47.307206
1.558255E-6	-47.354183
1.5583E-6	-47.325936
1.558345E-6	-47.342391
1.55839E-6	-47.337683
1.558435E-6	-47.366007
1.55848E-6	-47.396901
1.558525E-6	-47.420815
1.55857E-6	-47.428016
1.558615E-6	-47.425614
1.55866E-6	-47.416022
1.558705E-6	-47.432823
1.55875E-6	-47.432823
1.558795E-6	-47.440043
1.55884E-6	-47.423214
1.558885E-6	-47.382615
1.55893E-6	-47.389752
1.558975E-6	-47.396901
1.55902E-6	-47.401673
1.559065E-6	-47.401673
1.55911E-6	-47.411234
1.559155E-6	-47.416022
1.5592E-6	-47.420815
1.559245E-6	-47.464197
1.55929E-6	-47.500682
1.559335E-6	-47.510464
1.55938E-6	-47.500682
1.559425E-6	-47.520267
1.55947E-6	-47.503126
1.559515E-6	-47.530093
1.55956E-6	-47.547342
1.559605E-6	-47.530093
1.55965E-6	-47.512913
1.559695E-6	-47.481185
1.55974E-6	-47.4958
1.559785E-6	-47.517814
1.55983E-6	-47.512913
1.559875E-6	-47.517814
1.55992E-6	-47.50557
1.559965E-6	-47.520267
1.56001E-6	-47.559704
1.560055E-6	-47.594508
1.5601E-6	-47.619539
1.560145E-6	-47.624563
1.56019E-6	-47.629592
1.560235E-6	-47.639669
1.56028E-6	-47.642191
1.560325E-6	-47.664962
1.56037E-6	-47.659892
1.560415E-6	-47.647241
1.56046E-6	-47.644716
1.560505E-6	-47.629592
1.56055E-6	-47.619539
1.560595E-6	-47.637147
1.56064E-6	-47.634627
1.560685E-6	-47.632109
1.56073E-6	-47.644716
1.560775E-6	-47.647241
1.56082E-6	-47.682756
1.560865E-6	-47.715996
1.56091E-6	-47.739159
1.560955E-6	-47.746907
1.561E-6	-47.749493
1.561045E-6	-47.759852
1.56109E-6	-47.770236
1.561135E-6	-47.785858
1.56118E-6	-47.77804
1.561225E-6	-47.788467
1.56127E-6	-47.75726
1.561315E-6	-47.746907
1.56136E-6	-47.759852
1.561405E-6	-47.767637
1.56145E-6	-47.785858
1.561495E-6	-47.785858
1.56154E-6	-47.765041
1.561585E-6	-47.796304
1.56163E-6	-47.817271
1.561675E-6	-47.840982
1.56172E-6	-47.85421
1.561765E-6	-47.85421
1.56181E-6	-47.870138
1.561855E-6	-47.883456
1.5619E-6	-47.888795
1.561945E-6	-47.907532
1.56199E-6	-47.918275
1.562035E-6	-47.896815
1.56208E-6	-47.888795
1.562125E-6	-47.886124
1.56217E-6	-47.886124
1.562215E-6	-47.883456
1.56226E-6	-47.883456
1.562305E-6	-47.89414
1.56235E-6	-47.910215
1.562395E-6	-47.915586
1.56244E-6	-47.929045
1.562485E-6	-47.953375
1.56253E-6	-47.988761
1.562575E-6	-47.986029
1.56262E-6	-47.996968
1.562665E-6	-48.032713
1.56271E-6	-48.054857
1.562755E-6	-48.035475
1.5628E-6	-48.035475
1.562845E-6	-48.035475
1.56289E-6	-48.021683
1.562935E-6	-48.021683
1.56298E-6	-48.032713
1.563025E-6	-48.041003
1.56307E-6	-48.029953
1.563115E-6	-48.038238
1.56316E-6	-48.035475
1.563205E-6	-48.06319
1.56325E-6	-48.065971
1.563295E-6	-48.096683
1.56334E-6	-48.113527
1.563385E-6	-48.107905
1.56343E-6	-48.144578
