Wavelength (nm)	Power (dBm)
1.525E-6	-47.101882
1.525045E-6	-47.002748
1.52509E-6	-46.912222
1.525135E-6	-46.811023
1.52518E-6	-46.708056
1.525225E-6	-46.611453
1.52527E-6	-46.513058
1.525315E-6	-46.422557
1.52536E-6	-46.339508
1.525405E-6	-46.236056
1.52545E-6	-46.136794
1.525495E-6	-46.039751
1.52554E-6	-45.965363
1.525585E-6	-45.875395
1.52563E-6	-45.787252
1.525675E-6	-45.691191
1.52572E-6	-45.600361
1.525765E-6	-45.540846
1.52581E-6	-45.482136
1.525855E-6	-45.389519
1.5259E-6	-45.31505
1.525945E-6	-45.244741
1.52599E-6	-45.191311
1.526035E-6	-45.118725
1.52608E-6	-45.059846
1.526125E-6	-44.986668
1.52617E-6	-44.92684
1.526215E-6	-44.842586
1.52626E-6	-44.766438
1.526305E-6	-44.70313
1.52635E-6	-44.618034
1.526395E-6	-44.555599
1.52644E-6	-44.501388
1.526485E-6	-44.422523
1.52653E-6	-44.390179
1.526575E-6	-44.337983
1.52662E-6	-44.273607
1.526665E-6	-44.231981
1.52671E-6	-44.185055
1.526755E-6	-44.137504
1.5268E-6	-44.120647
1.526845E-6	-44.063817
1.52689E-6	-44.007721
1.526935E-6	-43.948027
1.52698E-6	-43.915809
1.527025E-6	-43.857357
1.52707E-6	-43.794476
1.527115E-6	-43.72839
1.52716E-6	-43.675427
1.527205E-6	-43.623102
1.52725E-6	-43.591212
1.527295E-6	-43.584267
1.52734E-6	-43.534002
1.527385E-6	-43.503731
1.52743E-6	-43.46691
1.527475E-6	-43.447655
1.52752E-6	-43.435185
1.527565E-6	-43.414163
1.52761E-6	-43.385659
1.527655E-6	-43.350761
1.5277E-6	-43.335756
1.527745E-6	-43.307761
1.52779E-6	-43.267026
1.527835E-6	-43.239469
1.52788E-6	-43.184874
1.527925E-6	-43.122036
1.52797E-6	-43.098926
1.528015E-6	-43.068009
1.52806E-6	-43.079466
1.528105E-6	-43.046935
1.52815E-6	-43.005092
1.528195E-6	-43.018124
1.52824E-6	-43.020736
1.528285E-6	-43.05044
1.52833E-6	-43.03731
1.528375E-6	-43.021606
1.52842E-6	-42.985184
1.528465E-6	-42.967086
1.52851E-6	-42.969667
1.528555E-6	-42.963648
1.5286E-6	-42.922595
1.528645E-6	-42.874345
1.52869E-6	-42.841637
1.528735E-6	-42.819137
1.52878E-6	-42.812493
1.528825E-6	-42.798407
1.52887E-6	-42.812493
1.528915E-6	-42.773661
1.52896E-6	-42.765443
1.529005E-6	-42.79758
1.52905E-6	-42.819968
1.529095E-6	-42.826624
1.52914E-6	-42.811663
1.529185E-6	-42.814153
1.52923E-6	-42.786016
1.529275E-6	-42.806687
1.52932E-6	-42.790968
1.529365E-6	-42.775306
1.52941E-6	-42.749873
1.529455E-6	-42.705112
1.5295E-6	-42.684112
1.529545E-6	-42.687337
1.52959E-6	-42.699448
1.529635E-6	-42.672043
1.52968E-6	-42.672043
1.529725E-6	-42.685724
1.52977E-6	-42.709973
1.529815E-6	-42.740884
1.52986E-6	-42.768728
1.529905E-6	-42.7417
1.52995E-6	-42.76134
1.529995E-6	-42.7597
1.53004E-6	-42.763802
1.530085E-6	-42.753146
1.53013E-6	-42.757241
1.530175E-6	-42.718086
1.53022E-6	-42.672847
1.530265E-6	-42.67365
1.53031E-6	-42.672043
1.530355E-6	-42.678476
1.5304E-6	-42.674454
1.530445E-6	-42.660808
1.53049E-6	-42.67365
1.530535E-6	-42.696215
1.53058E-6	-42.744967
1.530625E-6	-42.772016
1.53067E-6	-42.775306
1.530715E-6	-42.79262
1.53076E-6	-42.781894
1.530805E-6	-42.79262
1.53085E-6	-42.810833
1.530895E-6	-42.79262
1.53094E-6	-42.780246
1.530985E-6	-42.740884
1.53103E-6	-42.724587
1.531075E-6	-42.749873
1.53112E-6	-42.7597
1.531165E-6	-42.745784
1.53121E-6	-42.751509
1.531255E-6	-42.79262
1.5313E-6	-42.802545
1.531345E-6	-42.835793
1.53139E-6	-42.895441
1.531435E-6	-42.885302
1.53148E-6	-42.917491
1.531525E-6	-42.942218
1.53157E-6	-42.948208
1.531615E-6	-42.957637
1.53166E-6	-42.963648
1.531705E-6	-42.966226
1.53175E-6	-42.942218
1.531795E-6	-42.93709
1.53184E-6	-42.937945
1.531885E-6	-42.964507
1.53193E-6	-42.962788
1.531975E-6	-42.974833
1.53202E-6	-42.986911
1.532065E-6	-43.012037
1.53211E-6	-43.069769
1.532155E-6	-43.099812
1.5322E-6	-43.133637
1.532245E-6	-43.170431
1.53229E-6	-43.19302
1.532335E-6	-43.215727
1.53238E-6	-43.252307
1.532425E-6	-43.253225
1.53247E-6	-43.255982
1.532515E-6	-43.248635
1.53256E-6	-43.245883
1.532605E-6	-43.256901
1.53265E-6	-43.290124
1.532695E-6	-43.29105
1.53274E-6	-43.301255
1.532785E-6	-43.329208
1.53283E-6	-43.37809
1.532875E-6	-43.423706
1.53292E-6	-43.490129
1.532965E-6	-43.528127
1.53301E-6	-43.5635
1.533055E-6	-43.608124
1.5331E-6	-43.620102
1.533145E-6	-43.653212
1.53319E-6	-43.674415
1.533235E-6	-43.685562
1.53328E-6	-43.707943
1.533325E-6	-43.714067
1.53337E-6	-43.708963
1.533415E-6	-43.724293
1.53346E-6	-43.753055
1.533505E-6	-43.769576
1.53355E-6	-43.82266
1.533595E-6	-43.840499
1.53364E-6	-43.892334
1.533685E-6	-43.949105
1.53373E-6	-44.009908
1.533775E-6	-44.051656
1.53382E-6	-44.111683
1.533865E-6	-44.130753
1.53391E-6	-44.177093
1.533955E-6	-44.214754
1.534E-6	-44.23083
1.534045E-6	-44.271284
1.53409E-6	-44.260846
1.534135E-6	-44.265482
1.53418E-6	-44.273607
1.534225E-6	-44.308603
1.53427E-6	-44.32856
1.534315E-6	-44.380642
1.53436E-6	-44.428539
1.534405E-6	-44.450265
1.53445E-6	-44.501388
1.534495E-6	-44.580465
1.53454E-6	-44.641997
1.534585E-6	-44.701848
1.53463E-6	-44.735315
1.534675E-6	-44.754741
1.53472E-6	-44.788619
1.534765E-6	-44.847887
1.53481E-6	-44.871822
1.534855E-6	-44.889192
1.5349E-6	-44.88384
1.534945E-6	-44.899915
1.53499E-6	-44.918745
1.535035E-6	-44.93901
1.53508E-6	-45.004504
1.535125E-6	-45.037625
1.53517E-6	-45.084982
1.535215E-6	-45.097605
1.53526E-6	-45.181276
1.535305E-6	-45.247648
1.53535E-6	-45.334289
1.535395E-6	-45.374523
1.53544E-6	-45.392525
1.535485E-6	-45.418156
1.53553E-6	-45.450028
1.535575E-6	-45.499049
1.53562E-6	-45.505216
1.535665E-6	-45.503673
1.53571E-6	-45.483671
1.535755E-6	-45.503673
1.5358E-6	-45.529971
1.535845E-6	-45.564241
1.53589E-6	-45.611413
1.535935E-6	-45.641556
1.53598E-6	-45.673513
1.536025E-6	-45.728386
1.53607E-6	-45.795491
1.536115E-6	-45.865326
1.53616E-6	-45.89729
1.536205E-6	-45.936302
1.53625E-6	-45.944829
1.536295E-6	-45.989443
1.53634E-6	-46.010189
1.536385E-6	-46.041496
1.53643E-6	-46.041496
1.536475E-6	-46.025815
1.53652E-6	-46.015392
1.536565E-6	-46.025815
1.53661E-6	-46.048484
1.536655E-6	-46.085356
1.5367E-6	-46.106567
1.536745E-6	-46.117211
1.53679E-6	-46.161846
1.536835E-6	-46.232406
1.53688E-6	-46.29672
1.536925E-6	-46.332036
1.53697E-6	-46.346993
1.537015E-6	-46.35449
1.53706E-6	-46.401645
1.537105E-6	-46.424463
1.53715E-6	-46.441655
1.537195E-6	-46.466609
1.53724E-6	-46.413039
1.537285E-6	-46.394066
1.53733E-6	-46.373291
1.537375E-6	-46.40544
1.53742E-6	-46.428277
1.537465E-6	-46.414941
1.53751E-6	-46.42637
1.537555E-6	-46.451236
1.5376E-6	-46.485902
1.537645E-6	-46.548224
1.53769E-6	-46.611453
1.537735E-6	-46.639407
1.53778E-6	-46.647427
1.537825E-6	-46.647427
1.53787E-6	-46.667543
1.537915E-6	-46.693833
1.53796E-6	-46.693833
1.538005E-6	-46.657474
1.53805E-6	-46.617428
1.538095E-6	-46.589614
1.53814E-6	-46.583677
1.538185E-6	-46.605486
1.53823E-6	-46.611453
1.538275E-6	-46.607474
1.53832E-6	-46.601512
1.538365E-6	-46.615435
1.53841E-6	-46.677636
1.538455E-6	-46.736641
1.5385E-6	-46.757175
1.538545E-6	-46.765416
1.53859E-6	-46.78816
1.538635E-6	-46.78816
1.53868E-6	-46.792308
1.538725E-6	-46.794383
1.53877E-6	-46.761294
1.538815E-6	-46.714166
1.53886E-6	-46.68168
1.538905E-6	-46.663512
1.53895E-6	-46.665527
1.538995E-6	-46.643415
1.53904E-6	-46.635403
1.539085E-6	-46.665527
1.53913E-6	-46.663512
1.539175E-6	-46.687752
1.53922E-6	-46.726411
1.539265E-6	-46.779876
1.53931E-6	-46.784016
1.539355E-6	-46.794383
1.5394E-6	-46.815193
1.539445E-6	-46.802695
1.53949E-6	-46.794383
1.539535E-6	-46.779876
1.53958E-6	-46.722325
1.539625E-6	-46.685727
1.53967E-6	-46.645421
1.539715E-6	-46.633402
1.53976E-6	-46.627405
1.539805E-6	-46.599527
1.53985E-6	-46.599527
1.539895E-6	-46.593576
1.53994E-6	-46.597542
1.539985E-6	-46.647427
1.54003E-6	-46.710091
1.540075E-6	-46.718243
1.54012E-6	-46.724367
1.540165E-6	-46.728455
1.54021E-6	-46.722325
1.540255E-6	-46.724367
1.5403E-6	-46.695862
1.540345E-6	-46.691805
1.54039E-6	-46.643415
1.540435E-6	-46.563945
1.54048E-6	-46.546263
1.540525E-6	-46.522798
1.54057E-6	-46.516951
1.540615E-6	-46.509168
1.54066E-6	-46.511113
1.540705E-6	-46.499459
1.54075E-6	-46.516951
1.540795E-6	-46.552149
1.54084E-6	-46.593576
1.540885E-6	-46.623411
1.54093E-6	-46.633402
1.540975E-6	-46.629403
1.54102E-6	-46.621416
1.541065E-6	-46.595559
1.54111E-6	-46.583677
1.541155E-6	-46.560009
1.5412E-6	-46.516951
1.541245E-6	-46.462761
1.54129E-6	-46.413039
1.541335E-6	-46.416844
1.54138E-6	-46.38461
1.541425E-6	-46.3865
1.54147E-6	-46.403542
1.541515E-6	-46.3865
1.54156E-6	-46.399749
1.541605E-6	-46.468535
1.54165E-6	-46.507225
1.541695E-6	-46.522798
1.54174E-6	-46.522798
1.541785E-6	-46.520848
1.54183E-6	-46.491707
1.541875E-6	-46.49752
1.54192E-6	-46.487837
1.541965E-6	-46.42637
1.54201E-6	-46.382722
1.542055E-6	-46.318991
1.5421E-6	-46.293019
1.542145E-6	-46.289321
1.54219E-6	-46.276404
1.542235E-6	-46.281935
1.54228E-6	-46.276404
1.542325E-6	-46.305986
1.54237E-6	-46.328305
1.542415E-6	-46.380834
1.54246E-6	-46.414941
1.542505E-6	-46.418747
1.54255E-6	-46.409238
1.542595E-6	-46.395959
1.54264E-6	-46.403542
1.542685E-6	-46.395959
1.54273E-6	-46.397854
1.542775E-6	-46.337639
1.54282E-6	-46.250684
1.542865E-6	-46.212388
1.54291E-6	-46.214204
1.542955E-6	-46.221476
1.543E-6	-46.219657
1.543045E-6	-46.221476
1.54309E-6	-46.199698
1.543135E-6	-46.236056
1.54318E-6	-46.287474
1.543225E-6	-46.34512
1.54327E-6	-46.362001
1.543315E-6	-46.362001
1.54336E-6	-46.35449
1.543405E-6	-46.348866
1.54345E-6	-46.343249
1.543495E-6	-46.352614
1.54354E-6	-46.320853
1.543585E-6	-46.252517
1.54363E-6	-46.201508
1.543675E-6	-46.183435
1.54372E-6	-46.19427
1.543765E-6	-46.19427
1.54381E-6	-46.187044
1.543855E-6	-46.176227
1.5439E-6	-46.19427
1.543945E-6	-46.245193
1.54399E-6	-46.311555
1.544035E-6	-46.356366
1.54408E-6	-46.36388
1.544125E-6	-46.346993
1.54417E-6	-46.34512
1.544215E-6	-46.36388
1.54426E-6	-46.373291
1.544305E-6	-46.358244
1.54435E-6	-46.304131
1.544395E-6	-46.232406
1.54444E-6	-46.188849
1.544485E-6	-46.190655
1.54453E-6	-46.185239
1.544575E-6	-46.221476
1.54462E-6	-46.196078
1.544665E-6	-46.196078
1.54471E-6	-46.223296
1.544755E-6	-46.283781
1.5448E-6	-46.36388
1.544845E-6	-46.38461
1.54489E-6	-46.380834
1.544935E-6	-46.378947
1.54498E-6	-46.380834
1.545025E-6	-46.34512
1.54507E-6	-46.11366
1.545115E-6	-42.009353
1.54516E-6	-32.774483
1.545205E-6	-27.637147
1.54525E-6	-25.644741
1.545295E-6	-25.192746
1.54534E-6	-25.120137
1.545385E-6	-25.09199
1.54543E-6	-25.104634
1.545475E-6	-25.542402
1.54552E-6	-27.687854
1.545565E-6	-32.545348
1.54561E-6	-40.802945
1.545655E-6	-45.514483
1.5457E-6	-46.247023
1.545745E-6	-46.3865
1.54579E-6	-46.422557
1.545835E-6	-46.435917
1.54588E-6	-46.435917
1.545925E-6	-46.409238
1.54597E-6	-46.352614
1.546015E-6	-46.300424
1.54606E-6	-46.293019
1.546105E-6	-46.287474
1.54615E-6	-46.293019
1.546195E-6	-46.287474
1.54624E-6	-46.289321
1.546285E-6	-46.307841
1.54633E-6	-46.35449
1.546375E-6	-46.428277
1.54642E-6	-46.466609
1.546465E-6	-46.483969
1.54651E-6	-46.499459
1.546555E-6	-46.505282
1.5466E-6	-46.520848
1.546645E-6	-46.520848
1.54669E-6	-46.50334
1.546735E-6	-46.453154
1.54678E-6	-46.413039
1.546825E-6	-46.367642
1.54687E-6	-46.360122
1.546915E-6	-46.35074
1.54696E-6	-46.352614
1.547005E-6	-46.360122
1.54705E-6	-46.367642
1.547095E-6	-46.38461
1.54714E-6	-46.443569
1.547185E-6	-46.507225
1.54723E-6	-46.546263
1.547275E-6	-46.563945
1.54732E-6	-46.579723
1.547365E-6	-46.589614
1.54741E-6	-46.581699
1.547455E-6	-46.571827
1.5475E-6	-46.556077
1.547545E-6	-46.505282
1.54759E-6	-46.464684
1.547635E-6	-46.435917
1.54768E-6	-46.418747
1.547725E-6	-46.416844
1.54777E-6	-46.416844
1.547815E-6	-46.42637
1.54786E-6	-46.443569
1.547905E-6	-46.468535
1.54795E-6	-46.518899
1.547995E-6	-46.589614
1.54804E-6	-46.629403
1.548085E-6	-46.643415
1.54813E-6	-46.651443
1.548175E-6	-46.667543
1.54822E-6	-46.649435
1.548265E-6	-46.639407
1.54831E-6	-46.629403
1.548355E-6	-46.579723
1.5484E-6	-46.520848
1.548445E-6	-46.483969
1.54849E-6	-46.464684
1.548535E-6	-46.468535
1.54858E-6	-46.487837
1.548625E-6	-46.49752
1.54867E-6	-46.50334
1.548715E-6	-46.530605
1.54876E-6	-46.585655
1.548805E-6	-46.651443
1.54885E-6	-46.693833
1.548895E-6	-46.706021
1.54894E-6	-46.701955
1.548985E-6	-46.697892
1.54903E-6	-46.703988
1.549075E-6	-46.693833
1.54912E-6	-46.679657
1.549165E-6	-46.619421
1.54921E-6	-46.554113
1.549255E-6	-46.520848
1.5493E-6	-46.509168
1.549345E-6	-46.518899
1.54939E-6	-46.530605
1.549435E-6	-46.532559
1.54948E-6	-46.538427
1.549525E-6	-46.569855
1.54957E-6	-46.627405
1.549615E-6	-46.701955
1.54966E-6	-46.734593
1.549705E-6	-46.746896
1.54975E-6	-46.728455
1.549795E-6	-46.710091
1.54984E-6	-46.623411
1.549885E-6	-45.961934
1.54993E-6	-38.167302
1.549975E-6	-29.633711
1.55002E-6	-26.095948
1.550065E-6	-25.021033
1.55011E-6	-24.853195
1.550155E-6	-24.830682
1.5502E-6	-24.803032
1.550245E-6	-24.85718
1.55029E-6	-25.726762
1.550335E-6	-28.728952
1.55038E-6	-35.446982
1.550425E-6	-43.660268
1.55047E-6	-46.22876
1.550515E-6	-46.643415
1.55056E-6	-46.712128
1.550605E-6	-46.74074
1.55065E-6	-46.74895
1.550695E-6	-46.753061
1.55074E-6	-46.703988
1.550785E-6	-46.613443
1.55083E-6	-46.565914
1.550875E-6	-46.554113
1.55092E-6	-46.554113
1.550965E-6	-46.554113
1.55101E-6	-46.548224
1.551055E-6	-46.540385
1.5511E-6	-46.552149
1.551145E-6	-46.611453
1.55119E-6	-46.708056
1.551235E-6	-46.755118
1.55128E-6	-46.759234
1.551325E-6	-46.753061
1.55137E-6	-46.757175
1.551415E-6	-46.751005
1.55146E-6	-46.753061
1.551505E-6	-46.751005
1.55155E-6	-46.677636
1.551595E-6	-46.593576
1.55164E-6	-46.546263
1.551685E-6	-46.544302
1.55173E-6	-46.550186
1.551775E-6	-46.548224
1.55182E-6	-46.534514
1.551865E-6	-46.532559
1.55191E-6	-46.552149
1.551955E-6	-46.639407
1.552E-6	-46.722325
1.552045E-6	-46.746896
1.55209E-6	-46.74074
1.552135E-6	-46.742791
1.55218E-6	-46.74074
1.552225E-6	-46.751005
1.55227E-6	-46.755118
1.552315E-6	-46.718243
1.55236E-6	-46.651443
1.552405E-6	-46.550186
1.55245E-6	-46.530605
1.552495E-6	-46.522798
1.55254E-6	-46.530605
1.552585E-6	-46.516951
1.55263E-6	-46.513058
1.552675E-6	-46.505282
1.55272E-6	-46.542343
1.552765E-6	-46.633402
1.55281E-6	-46.701955
1.552855E-6	-46.7305
1.5529E-6	-46.732546
1.552945E-6	-46.722325
1.55299E-6	-46.74074
1.553035E-6	-46.74895
1.55308E-6	-46.734593
1.553125E-6	-46.689778
1.55317E-6	-46.613443
1.553215E-6	-46.546263
1.55326E-6	-46.520848
1.553305E-6	-46.507225
1.55335E-6	-46.50334
1.553395E-6	-46.493644
1.55344E-6	-46.485902
1.553485E-6	-46.499459
1.55353E-6	-46.538427
1.553575E-6	-46.621416
1.55362E-6	-46.685727
1.553665E-6	-46.706021
1.55371E-6	-46.716204
1.553755E-6	-46.722325
1.5538E-6	-46.722325
1.553845E-6	-46.726411
1.55389E-6	-46.712128
1.553935E-6	-46.673596
1.55398E-6	-46.593576
1.554025E-6	-46.5267
1.55407E-6	-46.501399
1.554115E-6	-46.483969
1.55416E-6	-46.474316
1.554205E-6	-46.455074
1.55425E-6	-46.466609
1.554295E-6	-46.485902
1.55434E-6	-46.528652
1.554385E-6	-46.611453
1.55443E-6	-46.665527
1.554475E-6	-46.701955
1.55452E-6	-46.712128
1.554565E-6	-46.714166
1.55461E-6	-46.712128
1.554655E-6	-46.708056
1.5547E-6	-46.689778
1.554745E-6	-46.653452
1.55479E-6	-46.577748
1.554835E-6	-46.501399
1.55488E-6	-46.472388
1.554925E-6	-46.455074
1.55497E-6	-46.443569
1.555015E-6	-46.455074
1.55506E-6	-46.451236
1.555105E-6	-46.468535
1.55515E-6	-46.511113
1.555195E-6	-46.599527
1.55524E-6	-46.663512
1.555285E-6	-46.687752
1.55533E-6	-46.687752
1.555375E-6	-46.697892
1.55542E-6	-46.693833
1.555465E-6	-46.697892
1.55551E-6	-46.68168
1.555555E-6	-46.645421
1.5556E-6	-46.567884
1.555645E-6	-46.493644
1.55569E-6	-46.464684
1.555735E-6	-46.460838
1.55578E-6	-46.449318
1.555825E-6	-46.451236
1.55587E-6	-46.464684
1.555915E-6	-46.478175
1.55596E-6	-46.515004
1.556005E-6	-46.611453
1.55605E-6	-46.675615
1.556095E-6	-46.708056
1.55614E-6	-46.720284
1.556185E-6	-46.722325
1.55623E-6	-46.724367
1.556275E-6	-46.710091
1.55632E-6	-46.714166
1.556365E-6	-46.675615
1.55641E-6	-46.585655
1.556455E-6	-46.507225
1.5565E-6	-46.464684
1.556545E-6	-46.462761
1.55659E-6	-46.462761
1.556635E-6	-46.489771
1.55668E-6	-46.480105
1.556725E-6	-46.493644
1.55677E-6	-46.540385
1.556815E-6	-46.635403
1.55686E-6	-46.718243
1.556905E-6	-46.753061
1.55695E-6	-46.759234
1.556995E-6	-46.74895
1.55704E-6	-46.744843
1.557085E-6	-46.744843
1.55713E-6	-46.761294
1.557175E-6	-46.716204
1.55722E-6	-46.615435
1.557265E-6	-46.544302
1.55731E-6	-46.520848
1.557355E-6	-46.522798
1.5574E-6	-46.534514
1.557445E-6	-46.538427
1.55749E-6	-46.53647
1.557535E-6	-46.544302
1.55758E-6	-46.601512
1.557625E-6	-46.716204
1.55767E-6	-46.800616
1.557715E-6	-46.838199
1.55776E-6	-46.834007
1.557805E-6	-46.819367
1.55785E-6	-46.831912
1.557895E-6	-46.842395
1.55794E-6	-46.855008
1.557985E-6	-46.802695
1.55803E-6	-46.701955
1.558075E-6	-46.621416
1.55812E-6	-46.611453
1.558165E-6	-46.625407
1.55821E-6	-46.627405
1.558255E-6	-46.633402
1.5583E-6	-46.639407
1.558345E-6	-46.657474
1.55839E-6	-46.720284
1.558435E-6	-46.834007
1.55848E-6	-46.920763
1.558525E-6	-46.950788
1.55857E-6	-46.948637
1.558615E-6	-46.955095
1.55866E-6	-46.974526
1.558705E-6	-46.985359
1.55875E-6	-46.985359
1.558795E-6	-46.922901
1.55884E-6	-46.836102
1.558885E-6	-46.765416
1.55893E-6	-46.763355
1.558975E-6	-46.784016
1.55902E-6	-46.784016
1.559065E-6	-46.794383
1.55911E-6	-46.798537
1.559155E-6	-46.813107
1.5592E-6	-46.890944
1.559245E-6	-47.004927
1.55929E-6	-47.099654
1.559335E-6	-47.126462
1.55938E-6	-47.128704
1.559425E-6	-47.14893
1.55947E-6	-47.162466
1.559515E-6	-47.185121
1.55956E-6	-47.189666
1.559605E-6	-47.137681
1.55965E-6	-47.028963
1.559695E-6	-46.983191
1.55974E-6	-46.981023
1.559785E-6	-46.985359
1.55983E-6	-46.994045
1.559875E-6	-47.002748
1.55992E-6	-47.013652
1.559965E-6	-47.037737
1.56001E-6	-47.124222
1.560055E-6	-47.242281
1.5601E-6	-47.328283
1.560145E-6	-47.349462
1.56019E-6	-47.368375
1.560235E-6	-47.377863
1.56028E-6	-47.408842
1.560325E-6	-47.428016
1.56037E-6	-47.420815
1.560415E-6	-47.373117
1.56046E-6	-47.286231
1.560505E-6	-47.242281
1.56055E-6	-47.233085
1.560595E-6	-47.23998
1.56064E-6	-47.260732
1.560685E-6	-47.267672
1.56073E-6	-47.283907
1.560775E-6	-47.304871
1.56082E-6	-47.389752
1.560865E-6	-47.508016
1.56091E-6	-47.582046
1.560955E-6	-47.62205
1.561E-6	-47.639669
1.561045E-6	-47.670039
1.56109E-6	-47.698066
1.561135E-6	-47.705742
1.56118E-6	-47.695511
1.561225E-6	-47.662426
1.56127E-6	-47.584535
1.561315E-6	-47.542406
1.56136E-6	-47.530093
1.561405E-6	-47.547342
1.56145E-6	-47.559704
1.561495E-6	-47.579558
1.56154E-6	-47.594508
1.561585E-6	-47.629592
1.56163E-6	-47.700623
1.561675E-6	-47.814645
1.56172E-6	-47.90485
1.561765E-6	-47.93444
1.56181E-6	-47.953375
1.561855E-6	-47.988761
1.5619E-6	-48.005191
1.561945E-6	-48.024438
1.56199E-6	-48.027194
1.562035E-6	-48.005191
1.56208E-6	-47.942545
1.562125E-6	-47.886124
1.56217E-6	-47.87546
1.562215E-6	-47.880789
1.56226E-6	-47.89414
1.562305E-6	-47.90217
1.56235E-6	-47.939841
1.562395E-6	-47.9588
1.56244E-6	-48.035475
1.562485E-6	-48.133261
1.56253E-6	-48.23041
1.562575E-6	-48.27689
1.56262E-6	-48.323873
1.562665E-6	-48.347557
1.56271E-6	-48.37137
1.562755E-6	-48.389316
1.5628E-6	-48.38632
1.562845E-6	-48.37137
1.56289E-6	-48.320922
1.562935E-6	-48.259402
1.56298E-6	-48.244882
1.563025E-6	-48.253588
1.56307E-6	-48.271053
1.563115E-6	-48.291518
1.56316E-6	-48.31208
1.563205E-6	-48.356471
1.56325E-6	-48.410347
1.563295E-6	-48.520147
1.56334E-6	-48.604357
1.563385E-6	-48.674202
1.56343E-6	-48.71924
1.563475E-6	-48.741935
