Wavelength (nm)	Power (dBm)
1.525E-6	-48.941493
1.525045E-6	-48.840568
1.52509E-6	-48.751699
1.525135E-6	-48.658229
1.52518E-6	-48.554258
1.525225E-6	-48.44057
1.52527E-6	-48.350526
1.525315E-6	-48.282735
1.52536E-6	-48.210231
1.525405E-6	-48.105097
1.52545E-6	-48.013429
1.525495E-6	-47.942545
1.52554E-6	-47.859513
1.525585E-6	-47.78325
1.52563E-6	-47.698066
1.525675E-6	-47.62205
1.52572E-6	-47.535014
1.525765E-6	-47.469044
1.52581E-6	-47.375489
1.525855E-6	-47.337683
1.5259E-6	-47.258422
1.525945E-6	-47.176045
1.52599E-6	-47.113037
1.526035E-6	-47.042131
1.52608E-6	-46.991872
1.526125E-6	-46.92718
1.52617E-6	-46.861328
1.526215E-6	-46.790233
1.52626E-6	-46.722325
1.526305E-6	-46.667543
1.52635E-6	-46.615435
1.526395E-6	-46.561977
1.52644E-6	-46.501399
1.526485E-6	-46.430186
1.52653E-6	-46.369524
1.526575E-6	-46.328305
1.52662E-6	-46.274562
1.526665E-6	-46.241536
1.52671E-6	-46.174427
1.526755E-6	-46.11366
1.5268E-6	-46.08712
1.526845E-6	-46.057235
1.52689E-6	-45.99462
1.526935E-6	-45.953373
1.52698E-6	-45.890541
1.527025E-6	-45.858626
1.52707E-6	-45.828606
1.527115E-6	-45.782316
1.52716E-6	-45.738142
1.527205E-6	-45.696024
1.52725E-6	-45.652715
1.527295E-6	-45.62408
1.52734E-6	-45.594057
1.527385E-6	-45.554868
1.52743E-6	-45.523769
1.527475E-6	-45.506759
1.52752E-6	-45.472938
1.527565E-6	-45.427238
1.52761E-6	-45.424209
1.527655E-6	-45.395532
1.5277E-6	-45.353614
1.527745E-6	-45.326879
1.52779E-6	-45.326879
1.527835E-6	-45.295895
1.52788E-6	-45.262212
1.527925E-6	-45.236032
1.52797E-6	-45.205687
1.528015E-6	-45.188441
1.52806E-6	-45.172693
1.528105E-6	-45.185574
1.52815E-6	-45.128616
1.528195E-6	-45.106041
1.52824E-6	-45.108856
1.528285E-6	-45.118725
1.52833E-6	-45.103227
1.528375E-6	-45.093393
1.52842E-6	-45.066814
1.528465E-6	-45.0515
1.52851E-6	-45.029321
1.528555E-6	-45.027938
1.5286E-6	-45.026556
1.528645E-6	-45.005879
1.52869E-6	-44.992148
1.528735E-6	-44.959371
1.52878E-6	-44.960732
1.528825E-6	-44.958011
1.52887E-6	-44.956651
1.528915E-6	-44.93495
1.52896E-6	-44.937656
1.529005E-6	-44.929541
1.52905E-6	-44.92819
1.529095E-6	-44.94172
1.52914E-6	-44.944431
1.529185E-6	-44.92684
1.52923E-6	-44.917397
1.529275E-6	-44.903943
1.52932E-6	-44.921441
1.529365E-6	-44.918745
1.52941E-6	-44.886515
1.529455E-6	-44.890531
1.5295E-6	-44.873156
1.529545E-6	-44.881166
1.52959E-6	-44.885177
1.529635E-6	-44.889192
1.52968E-6	-44.869156
1.529725E-6	-44.86516
1.52977E-6	-44.869156
1.529815E-6	-44.89187
1.52986E-6	-44.885177
1.529905E-6	-44.898573
1.52995E-6	-44.89321
1.529995E-6	-44.887853
1.53004E-6	-44.863829
1.530085E-6	-44.913356
1.53013E-6	-44.9026
1.530175E-6	-44.889192
1.53022E-6	-44.878495
1.530265E-6	-44.889192
1.53031E-6	-44.88384
1.530355E-6	-44.890531
1.5304E-6	-44.895891
1.530445E-6	-44.89455
1.53049E-6	-44.890531
1.530535E-6	-44.89321
1.53058E-6	-44.90932
1.530625E-6	-44.929541
1.53067E-6	-44.921441
1.530715E-6	-44.93495
1.53076E-6	-44.92819
1.530805E-6	-44.937656
1.53085E-6	-44.974363
1.530895E-6	-44.953932
1.53094E-6	-44.962093
1.530985E-6	-44.933597
1.53103E-6	-44.93495
1.531075E-6	-44.943075
1.53112E-6	-44.979828
1.531165E-6	-44.978461
1.53121E-6	-44.970269
1.531255E-6	-45.001755
1.5313E-6	-44.983931
1.531345E-6	-45.01276
1.53139E-6	-45.047333
1.531435E-6	-45.03901
1.53148E-6	-45.05289
1.531525E-6	-45.058454
1.53157E-6	-45.072396
1.531615E-6	-45.103227
1.53166E-6	-45.100415
1.531705E-6	-45.103227
1.53175E-6	-45.107448
1.531795E-6	-45.096201
1.53184E-6	-45.127202
1.531885E-6	-45.121549
1.53193E-6	-45.152732
1.531975E-6	-45.175552
1.53202E-6	-45.16698
1.532065E-6	-45.194182
1.53211E-6	-45.22734
1.532155E-6	-45.228787
1.5322E-6	-45.243288
1.532245E-6	-45.252012
1.53229E-6	-45.281218
1.532335E-6	-45.309147
1.53238E-6	-45.32836
1.532425E-6	-45.344684
1.53247E-6	-45.349147
1.532515E-6	-45.355105
1.53256E-6	-45.367044
1.532605E-6	-45.383514
1.53265E-6	-45.415132
1.532695E-6	-45.43027
1.53274E-6	-45.440898
1.532785E-6	-45.451551
1.53283E-6	-45.479068
1.532875E-6	-45.525319
1.53292E-6	-45.547072
1.532965E-6	-45.543958
1.53301E-6	-45.578339
1.533055E-6	-45.598784
1.5331E-6	-45.636783
1.533145E-6	-45.655908
1.53319E-6	-45.675117
1.533235E-6	-45.697636
1.53328E-6	-45.715412
1.533325E-6	-45.721894
1.53337E-6	-45.757719
1.533415E-6	-45.780672
1.53346E-6	-45.783961
1.533505E-6	-45.816987
1.53355E-6	-45.855281
1.533595E-6	-45.875395
1.53364E-6	-45.90405
1.533685E-6	-45.922693
1.53373E-6	-45.946536
1.533775E-6	-45.973948
1.53382E-6	-46.004993
1.533865E-6	-46.039751
1.53391E-6	-46.076548
1.533955E-6	-46.088884
1.534E-6	-46.104795
1.534045E-6	-46.154674
1.53409E-6	-46.178028
1.534135E-6	-46.187044
1.53418E-6	-46.212388
1.534225E-6	-46.247023
1.53427E-6	-46.23423
1.534315E-6	-46.278247
1.53436E-6	-46.317131
1.534405E-6	-46.333903
1.53445E-6	-46.369524
1.534495E-6	-46.382722
1.53454E-6	-46.430186
1.534585E-6	-46.464684
1.53463E-6	-46.49752
1.534675E-6	-46.53647
1.53472E-6	-46.540385
1.534765E-6	-46.571827
1.53481E-6	-46.607474
1.534855E-6	-46.631402
1.5349E-6	-46.635403
1.534945E-6	-46.68168
1.53499E-6	-46.693833
1.535035E-6	-46.701955
1.53508E-6	-46.744843
1.535125E-6	-46.784016
1.53517E-6	-46.79646
1.535215E-6	-46.836102
1.53526E-6	-46.852903
1.535305E-6	-46.880343
1.53535E-6	-46.90157
1.535395E-6	-46.976691
1.53544E-6	-46.981023
1.535485E-6	-46.996219
1.53553E-6	-47.009287
1.535575E-6	-47.046529
1.53562E-6	-47.081873
1.535665E-6	-47.10411
1.53571E-6	-47.101882
1.535755E-6	-47.115272
1.5358E-6	-47.117508
1.535845E-6	-47.171514
1.53589E-6	-47.185121
1.535935E-6	-47.212464
1.53598E-6	-47.217038
1.536025E-6	-47.246886
1.53607E-6	-47.274622
1.536115E-6	-47.279262
1.53616E-6	-47.340036
1.536205E-6	-47.354183
1.53625E-6	-47.377863
1.536295E-6	-47.373117
1.53634E-6	-47.389752
1.536385E-6	-47.425614
1.53643E-6	-47.461776
1.536475E-6	-47.428016
1.53652E-6	-47.435228
1.536565E-6	-47.440043
1.53661E-6	-47.46662
1.536655E-6	-47.493361
1.5367E-6	-47.490923
1.536745E-6	-47.503126
1.53679E-6	-47.520267
1.536835E-6	-47.542406
1.53688E-6	-47.582046
1.536925E-6	-47.587026
1.53697E-6	-47.587026
1.537015E-6	-47.607005
1.53706E-6	-47.614521
1.537105E-6	-47.627077
1.53715E-6	-47.634627
1.537195E-6	-47.644716
1.53724E-6	-47.662426
1.537285E-6	-47.654827
1.53733E-6	-47.652297
1.537375E-6	-47.654827
1.53742E-6	-47.670039
1.537465E-6	-47.68021
1.53751E-6	-47.692957
1.537555E-6	-47.675121
1.5376E-6	-47.708303
1.537645E-6	-47.726276
1.53769E-6	-47.746907
1.537735E-6	-47.767637
1.53778E-6	-47.749493
1.537825E-6	-47.731424
1.53787E-6	-47.75726
1.537915E-6	-47.77804
1.53796E-6	-47.77804
1.538005E-6	-47.75726
1.53805E-6	-47.749493
1.538095E-6	-47.75208
1.53814E-6	-47.75726
1.538185E-6	-47.765041
1.53823E-6	-47.775437
1.538275E-6	-47.770236
1.53832E-6	-47.74174
1.538365E-6	-47.765041
1.53841E-6	-47.767637
1.538455E-6	-47.809397
1.5385E-6	-47.796304
1.538545E-6	-47.788467
1.53859E-6	-47.817271
1.538635E-6	-47.817271
1.53868E-6	-47.833064
1.538725E-6	-47.8199
1.53877E-6	-47.806775
1.538815E-6	-47.785858
1.53886E-6	-47.780644
1.538905E-6	-47.770236
1.53895E-6	-47.79369
1.538995E-6	-47.780644
1.53904E-6	-47.762445
1.539085E-6	-47.759852
1.53913E-6	-47.754669
1.539175E-6	-47.775437
1.53922E-6	-47.785858
1.539265E-6	-47.798919
1.53931E-6	-47.780644
1.539355E-6	-47.762445
1.5394E-6	-47.791078
1.539445E-6	-47.806775
1.53949E-6	-47.798919
1.539535E-6	-47.75726
1.53958E-6	-47.772835
1.539625E-6	-47.734001
1.53967E-6	-47.749493
1.539715E-6	-47.726276
1.53976E-6	-47.75208
1.539805E-6	-47.734001
1.53985E-6	-47.726276
1.539895E-6	-47.739159
1.53994E-6	-47.74174
1.539985E-6	-47.744323
1.54003E-6	-47.754669
1.540075E-6	-47.75208
1.54012E-6	-47.739159
1.540165E-6	-47.71343
1.54021E-6	-47.736579
1.540255E-6	-47.739159
1.5403E-6	-47.734001
1.540345E-6	-47.728849
1.54039E-6	-47.662426
1.540435E-6	-47.690404
1.54048E-6	-47.677665
1.540525E-6	-47.662426
1.54057E-6	-47.654827
1.540615E-6	-47.654827
1.54066E-6	-47.657359
1.540705E-6	-47.649768
1.54075E-6	-47.672579
1.540795E-6	-47.644716
1.54084E-6	-47.659892
1.540885E-6	-47.654827
1.54093E-6	-47.649768
1.540975E-6	-47.677665
1.54102E-6	-47.6675
1.541065E-6	-47.654827
1.54111E-6	-47.637147
1.541155E-6	-47.647241
1.5412E-6	-47.62205
1.541245E-6	-47.614521
1.54129E-6	-47.599502
1.541335E-6	-47.592012
1.54138E-6	-47.579558
1.541425E-6	-47.579558
1.54147E-6	-47.592012
1.541515E-6	-47.589518
1.54156E-6	-47.579558
1.541605E-6	-47.584535
1.54165E-6	-47.594508
1.541695E-6	-47.579558
1.54174E-6	-47.594508
1.541785E-6	-47.599502
1.54183E-6	-47.579558
1.541875E-6	-47.56962
1.54192E-6	-47.574586
1.541965E-6	-47.562181
1.54201E-6	-47.547342
1.542055E-6	-47.532553
1.5421E-6	-47.510464
1.542145E-6	-47.510464
1.54219E-6	-47.517814
1.542235E-6	-47.515363
1.54228E-6	-47.515363
1.542325E-6	-47.508016
1.54237E-6	-47.508016
1.542415E-6	-47.512913
1.54246E-6	-47.522722
1.542505E-6	-47.530093
1.54255E-6	-47.512913
1.542595E-6	-47.508016
1.54264E-6	-47.510464
1.542685E-6	-47.522722
1.54273E-6	-47.517814
1.542775E-6	-47.512913
1.54282E-6	-47.473897
1.542865E-6	-47.456937
1.54291E-6	-47.447275
1.542955E-6	-47.469044
1.543E-6	-47.461776
1.543045E-6	-47.459355
1.54309E-6	-47.452103
1.543135E-6	-47.461776
1.54318E-6	-47.456937
1.543225E-6	-47.476325
1.54327E-6	-47.498241
1.543315E-6	-47.4958
1.54336E-6	-47.493361
1.543405E-6	-47.473897
1.54345E-6	-47.488487
1.543495E-6	-47.456937
1.54354E-6	-47.476325
1.543585E-6	-47.464197
1.54363E-6	-47.447275
1.543675E-6	-47.432823
1.54372E-6	-47.447275
1.543765E-6	-47.442452
1.54381E-6	-47.461776
1.543855E-6	-47.444863
1.5439E-6	-47.432823
1.543945E-6	-47.461776
1.54399E-6	-47.47147
1.544035E-6	-47.503126
1.54408E-6	-47.493361
1.544125E-6	-47.493361
1.54417E-6	-47.488487
1.544215E-6	-47.4958
1.54426E-6	-47.498241
1.544305E-6	-47.510464
1.54435E-6	-47.483618
1.544395E-6	-47.449688
1.54444E-6	-47.454519
1.544485E-6	-47.444863
1.54453E-6	-47.464197
1.544575E-6	-47.461776
1.54462E-6	-47.461776
1.544665E-6	-47.456937
1.54471E-6	-47.46662
1.544755E-6	-47.47147
1.5448E-6	-47.508016
1.544845E-6	-47.517814
1.54489E-6	-47.510464
1.544935E-6	-47.500682
1.54498E-6	-47.500682
1.545025E-6	-47.535014
1.54507E-6	-47.473897
1.545115E-6	-46.397854
1.54516E-6	-39.817157
1.545205E-6	-35.089186
1.54525E-6	-32.824959
1.545295E-6	-32.277517
1.54534E-6	-32.19035
1.545385E-6	-32.142432
1.54543E-6	-32.171692
1.545475E-6	-32.465702
1.54552E-6	-34.278257
1.545565E-6	-38.616973
1.54561E-6	-44.73144
1.545655E-6	-47.2262
1.5457E-6	-47.488487
1.545745E-6	-47.547342
1.54579E-6	-47.547342
1.545835E-6	-47.564659
1.54588E-6	-47.574586
1.545925E-6	-47.559704
1.54597E-6	-47.539941
1.546015E-6	-47.522722
1.54606E-6	-47.517814
1.546105E-6	-47.535014
1.54615E-6	-47.539941
1.546195E-6	-47.527635
1.54624E-6	-47.535014
1.546285E-6	-47.547342
1.54633E-6	-47.572102
1.546375E-6	-47.587026
1.54642E-6	-47.587026
1.546465E-6	-47.589518
1.54651E-6	-47.599502
1.546555E-6	-47.609509
1.5466E-6	-47.62205
1.546645E-6	-47.627077
1.54669E-6	-47.624563
1.546735E-6	-47.612014
1.54678E-6	-47.587026
1.546825E-6	-47.584535
1.54687E-6	-47.602002
1.546915E-6	-47.599502
1.54696E-6	-47.592012
1.547005E-6	-47.587026
1.54705E-6	-47.582046
1.547095E-6	-47.612014
1.54714E-6	-47.62205
1.547185E-6	-47.637147
1.54723E-6	-47.642191
1.547275E-6	-47.642191
1.54732E-6	-47.652297
1.547365E-6	-47.690404
1.54741E-6	-47.677665
1.547455E-6	-47.659892
1.5475E-6	-47.654827
1.547545E-6	-47.647241
1.54759E-6	-47.637147
1.547635E-6	-47.647241
1.54768E-6	-47.629592
1.547725E-6	-47.62205
1.54777E-6	-47.62205
1.547815E-6	-47.619539
1.54786E-6	-47.654827
1.547905E-6	-47.662426
1.54795E-6	-47.682756
1.547995E-6	-47.690404
1.54804E-6	-47.698066
1.548085E-6	-47.705742
1.54813E-6	-47.721133
1.548175E-6	-47.723704
1.54822E-6	-47.715996
1.548265E-6	-47.71343
1.54831E-6	-47.708303
1.548355E-6	-47.698066
1.5484E-6	-47.705742
1.548445E-6	-47.68021
1.54849E-6	-47.672579
1.548535E-6	-47.6675
1.54858E-6	-47.670039
1.548625E-6	-47.685304
1.54867E-6	-47.710866
1.548715E-6	-47.672579
1.54876E-6	-47.715996
1.548805E-6	-47.723704
1.54885E-6	-47.739159
1.548895E-6	-47.746907
1.54894E-6	-47.739159
1.548985E-6	-47.75208
1.54903E-6	-47.74174
1.549075E-6	-47.731424
1.54912E-6	-47.723704
1.549165E-6	-47.726276
1.54921E-6	-47.718564
1.549255E-6	-47.700623
1.5493E-6	-47.692957
1.549345E-6	-47.692957
1.54939E-6	-47.692957
1.549435E-6	-47.715996
1.54948E-6	-47.710866
1.549525E-6	-47.715996
1.54957E-6	-47.723704
1.549615E-6	-47.739159
1.54966E-6	-47.754669
1.549705E-6	-47.770236
1.54975E-6	-47.767637
1.549795E-6	-47.734001
1.54984E-6	-47.715996
1.549885E-6	-47.597004
1.54993E-6	-44.325031
1.549975E-6	-36.972363
1.55002E-6	-33.243133
1.550065E-6	-32.024555
1.55011E-6	-31.763302
1.550155E-6	-31.732128
1.5502E-6	-31.734069
1.550245E-6	-31.754837
1.55029E-6	-32.466468
1.550335E-6	-35.059846
1.55038E-6	-40.437835
1.550425E-6	-46.455074
1.55047E-6	-47.584535
1.550515E-6	-47.731424
1.55056E-6	-47.74174
1.550605E-6	-47.74174
1.55065E-6	-47.749493
1.550695E-6	-47.749493
1.55074E-6	-47.746907
1.550785E-6	-47.731424
1.55083E-6	-47.710866
1.550875E-6	-47.695511
1.55092E-6	-47.705742
1.550965E-6	-47.710866
1.55101E-6	-47.710866
1.551055E-6	-47.726276
1.5511E-6	-47.700623
1.551145E-6	-47.710866
1.55119E-6	-47.731424
1.551235E-6	-47.744323
1.55128E-6	-47.75726
1.551325E-6	-47.749493
1.55137E-6	-47.746907
1.551415E-6	-47.731424
1.55146E-6	-47.754669
1.551505E-6	-47.749493
1.55155E-6	-47.74174
1.551595E-6	-47.698066
1.55164E-6	-47.68021
1.551685E-6	-47.692957
1.55173E-6	-47.692957
1.551775E-6	-47.690404
1.55182E-6	-47.687854
1.551865E-6	-47.68021
1.55191E-6	-47.677665
1.551955E-6	-47.698066
1.552E-6	-47.721133
1.552045E-6	-47.749493
1.55209E-6	-47.759852
1.552135E-6	-47.723704
1.55218E-6	-47.715996
1.552225E-6	-47.746907
1.55227E-6	-47.739159
1.552315E-6	-47.734001
1.55236E-6	-47.705742
1.552405E-6	-47.672579
1.55245E-6	-47.670039
1.552495E-6	-47.662426
1.55254E-6	-47.672579
1.552585E-6	-47.675121
1.55263E-6	-47.664962
1.552675E-6	-47.657359
1.55272E-6	-47.664962
1.552765E-6	-47.692957
1.55281E-6	-47.731424
1.552855E-6	-47.71343
1.5529E-6	-47.715996
1.552945E-6	-47.700623
1.55299E-6	-47.710866
1.553035E-6	-47.718564
1.55308E-6	-47.736579
1.553125E-6	-47.703182
1.55317E-6	-47.68021
1.553215E-6	-47.6675
1.55326E-6	-47.654827
1.553305E-6	-47.664962
1.55335E-6	-47.6675
1.553395E-6	-47.649768
1.55344E-6	-47.634627
1.553485E-6	-47.639669
1.55353E-6	-47.649768
1.553575E-6	-47.687854
1.55362E-6	-47.700623
1.553665E-6	-47.710866
1.55371E-6	-47.695511
1.553755E-6	-47.687854
1.5538E-6	-47.687854
1.553845E-6	-47.710866
1.55389E-6	-47.71343
1.553935E-6	-47.690404
1.55398E-6	-47.659892
1.554025E-6	-47.634627
1.55407E-6	-47.654827
1.554115E-6	-47.652297
1.55416E-6	-47.632109
1.554205E-6	-47.624563
1.55425E-6	-47.62205
1.554295E-6	-47.634627
1.55434E-6	-47.647241
1.554385E-6	-47.675121
1.55443E-6	-47.677665
1.554475E-6	-47.68021
1.55452E-6	-47.68021
1.554565E-6	-47.695511
1.55461E-6	-47.700623
1.554655E-6	-47.695511
1.5547E-6	-47.687854
1.554745E-6	-47.677665
1.55479E-6	-47.657359
1.554835E-6	-47.634627
1.55488E-6	-47.627077
1.554925E-6	-47.617029
1.55497E-6	-47.607005
1.555015E-6	-47.609509
1.55506E-6	-47.627077
1.555105E-6	-47.607005
1.55515E-6	-47.62205
1.555195E-6	-47.659892
1.55524E-6	-47.654827
1.555285E-6	-47.664962
1.55533E-6	-47.690404
1.555375E-6	-47.692957
1.55542E-6	-47.692957
1.555465E-6	-47.682756
1.55551E-6	-47.662426
1.555555E-6	-47.659892
1.5556E-6	-47.647241
1.555645E-6	-47.624563
1.55569E-6	-47.617029
1.555735E-6	-47.614521
1.55578E-6	-47.607005
1.555825E-6	-47.597004
1.55587E-6	-47.609509
1.555915E-6	-47.62205
1.55596E-6	-47.642191
1.556005E-6	-47.654827
1.55605E-6	-47.657359
1.556095E-6	-47.677665
1.55614E-6	-47.695511
1.556185E-6	-47.695511
1.55623E-6	-47.677665
1.556275E-6	-47.682756
1.55632E-6	-47.664962
1.556365E-6	-47.662426
1.55641E-6	-47.657359
1.556455E-6	-47.62205
1.5565E-6	-47.637147
1.556545E-6	-47.609509
1.55659E-6	-47.612014
1.556635E-6	-47.612014
1.55668E-6	-47.62205
1.556725E-6	-47.627077
1.55677E-6	-47.639669
1.556815E-6	-47.652297
1.55686E-6	-47.677665
1.556905E-6	-47.698066
1.55695E-6	-47.710866
1.556995E-6	-47.703182
1.55704E-6	-47.692957
1.557085E-6	-47.700623
1.55713E-6	-47.695511
1.557175E-6	-47.703182
1.55722E-6	-47.68021
1.557265E-6	-47.654827
1.55731E-6	-47.637147
1.557355E-6	-47.644716
1.5574E-6	-47.652297
1.557445E-6	-47.657359
1.55749E-6	-47.657359
1.557535E-6	-47.662426
1.55758E-6	-47.68021
1.557625E-6	-47.695511
1.55767E-6	-47.731424
1.557715E-6	-47.754669
1.55776E-6	-47.759852
1.557805E-6	-47.754669
1.55785E-6	-47.746907
1.557895E-6	-47.736579
1.55794E-6	-47.765041
1.557985E-6	-47.77804
1.55803E-6	-47.734001
1.558075E-6	-47.710866
1.55812E-6	-47.703182
1.558165E-6	-47.71343
1.55821E-6	-47.710866
1.558255E-6	-47.71343
1.5583E-6	-47.728849
1.558345E-6	-47.723704
1.55839E-6	-47.736579
1.558435E-6	-47.765041
1.55848E-6	-47.81202
1.558525E-6	-47.830428
1.55857E-6	-47.825161
1.558615E-6	-47.817271
1.55866E-6	-47.840982
1.558705E-6	-47.840982
1.55875E-6	-47.85421
1.558795E-6	-47.843624
1.55884E-6	-47.81202
1.558885E-6	-47.801536
1.55893E-6	-47.798919
1.558975E-6	-47.81202
1.55902E-6	-47.817271
1.559065E-6	-47.825161
1.55911E-6	-47.825161
1.559155E-6	-47.825161
1.5592E-6	-47.843624
1.559245E-6	-47.886124
1.55929E-6	-47.92635
1.559335E-6	-47.939841
1.55938E-6	-47.942545
1.559425E-6	-47.939841
1.55947E-6	-47.947956
1.559515E-6	-47.977842
1.55956E-6	-47.980569
1.559605E-6	-47.966951
1.55965E-6	-47.94525
1.559695E-6	-47.929045
1.55974E-6	-47.93444
1.559785E-6	-47.94525
1.55983E-6	-47.966951
1.559875E-6	-47.966951
1.55992E-6	-47.975117
1.559965E-6	-47.986029
1.56001E-6	-48.002448
1.560055E-6	-48.054857
1.5601E-6	-48.096683
1.560145E-6	-48.08549
1.56019E-6	-48.082696
1.560235E-6	-48.099486
1.56028E-6	-48.127614
1.560325E-6	-48.138916
1.56037E-6	-48.144578
1.560415E-6	-48.124793
1.56046E-6	-48.124793
1.560505E-6	-48.082696
1.56055E-6	-48.10229
1.560595E-6	-48.119156
1.56064E-6	-48.121974
1.560685E-6	-48.107905
1.56073E-6	-48.130437
1.560775E-6	-48.136088
1.56082E-6	-48.175853
1.560865E-6	-48.213108
1.56091E-6	-48.241984
1.560955E-6	-48.250684
1.561E-6	-48.253588
1.561045E-6	-48.262312
1.56109E-6	-48.294449
1.561135E-6	-48.297383
1.56118E-6	-48.306195
1.561225E-6	-48.288588
1.56127E-6	-48.279812
1.561315E-6	-48.256494
1.56136E-6	-48.282735
1.561405E-6	-48.288588
1.56145E-6	-48.306195
1.561495E-6	-48.294449
1.56154E-6	-48.300318
1.561585E-6	-48.329782
1.56163E-6	-48.356471
1.561675E-6	-48.395315
1.56172E-6	-48.419392
1.561765E-6	-48.434508
1.56181E-6	-48.443604
1.561855E-6	-48.45576
1.5619E-6	-48.467951
1.561945E-6	-48.480176
1.56199E-6	-48.480176
1.562035E-6	-48.471004
1.56208E-6	-48.4649
1.562125E-6	-48.4649
1.56217E-6	-48.4649
1.562215E-6	-48.474059
1.56226E-6	-48.489367
1.562305E-6	-48.492436
1.56235E-6	-48.495506
1.562395E-6	-48.513973
1.56244E-6	-48.53872
1.562485E-6	-48.582368
1.56253E-6	-48.59492
1.562575E-6	-48.613816
1.56262E-6	-48.626459
1.562665E-6	-48.648673
1.56271E-6	-48.658229
1.562755E-6	-48.683813
1.5628E-6	-48.667805
1.562845E-6	-48.671002
1.56289E-6	-48.671002
1.562935E-6	-48.674202
1.56298E-6	-48.667805
1.563025E-6	-48.667805
1.56307E-6	-48.667805
1.563115E-6	-48.680607
1.56316E-6	-48.699881
1.563205E-6	-48.712777
1.56325E-6	-48.732194
1.563295E-6	-48.748442
1.56334E-6	-48.794261
1.563385E-6	-48.800846
1.56343E-6	-48.827287
1.563475E-6	-48.840568
1.56352E-6	-48.85389
