Wavelength (nm)	Power (dBm)
1.525E-6	-57.493361
1.525045E-6	-57.537477
1.52509E-6	-58.291518
1.525135E-6	-60.497325
1.52518E-6	-64.841262
1.525225E-6	-69.694003
1.52527E-6	-71.455725
1.525315E-6	-71.730834
1.52536E-6	-71.609621
1.525405E-6	-71.567672
1.52545E-6	-68.218867
1.525495E-6	-61.712757
1.52554E-6	-58.155925
1.525585E-6	-56.621416
1.52563E-6	-56.223296
1.525675E-6	-56.067759
1.52572E-6	-55.88212
1.525765E-6	-55.699249
1.52581E-6	-55.635193
1.525855E-6	-56.143937
1.5259E-6	-58.184422
1.525945E-6	-62.037727
1.52599E-6	-67.639669
1.526035E-6	-70.696114
1.52608E-6	-71.510723
1.526125E-6	-71.533537
1.52617E-6	-71.5422
1.526215E-6	-68.797552
1.52626E-6	-61.478251
1.526305E-6	-57.142177
1.52635E-6	-55.343198
1.526395E-6	-54.793855
1.52644E-6	-54.638205
1.526485E-6	-54.518564
1.52653E-6	-54.449056
1.526575E-6	-54.403327
1.52662E-6	-54.700566
1.526665E-6	-56.217839
1.52671E-6	-59.821323
1.526755E-6	-65.111674
1.5268E-6	-69.515582
1.526845E-6	-71.137349
1.52689E-6	-71.202735
1.526935E-6	-71.210189
1.52698E-6	-69.503944
1.527025E-6	-62.057211
1.52707E-6	-56.687752
1.527115E-6	-54.393761
1.52716E-6	-53.590219
1.527205E-6	-53.371478
1.52725E-6	-53.310553
1.527295E-6	-53.250471
1.52734E-6	-53.204813
1.527385E-6	-53.346066
1.52743E-6	-54.46724
1.527475E-6	-57.544873
1.52752E-6	-62.495688
1.527565E-6	-68.347557
1.52761E-6	-70.791465
1.527655E-6	-71.158279
1.5277E-6	-71.056839
1.527745E-6	-70.204061
1.52779E-6	-63.305901
1.527835E-6	-56.890944
1.52788E-6	-53.835245
1.527925E-6	-52.718086
1.52797E-6	-52.450404
1.528015E-6	-52.360482
1.52806E-6	-52.323989
1.528105E-6	-52.276049
1.52815E-6	-52.31806
1.528195E-6	-53.077702
1.52824E-6	-55.368539
1.528285E-6	-59.858997
1.52833E-6	-66.078309
1.528375E-6	-69.905491
1.52842E-6	-70.718091
1.528465E-6	-70.758758
1.52851E-6	-70.584389
1.528555E-6	-64.929541
1.5286E-6	-57.56962
1.528645E-6	-53.767507
1.52869E-6	-52.153827
1.528735E-6	-51.715335
1.52878E-6	-51.619699
1.528825E-6	-51.614657
1.52887E-6	-51.562068
1.528915E-6	-51.521807
1.52896E-6	-51.940236
1.529005E-6	-53.754085
1.52905E-6	-57.801536
1.529095E-6	-63.381873
1.52914E-6	-68.667805
1.529185E-6	-69.854795
1.52923E-6	-68.941493
1.529275E-6	-65.175552
1.52932E-6	-58.17015
1.529365E-6	-41.071266
1.52941E-6	-32.76052
1.529455E-6	-28.857227
1.5295E-6	-27.342391
1.529545E-6	-26.987529
1.52959E-6	-26.912222
1.529635E-6	-26.840297
1.52968E-6	-26.848697
1.529725E-6	-27.798919
1.52977E-6	-30.847585
1.529815E-6	-38.164455
1.52986E-6	-48.804142
1.529905E-6	-58.467951
1.52995E-6	-63.767507
1.529995E-6	-67.8199
1.53004E-6	-69.150664
1.530085E-6	-68.598063
1.53013E-6	-61.507649
1.530175E-6	-55.045944
1.53022E-6	-52.0607
1.530265E-6	-50.95555
1.53031E-6	-50.715017
1.530355E-6	-50.673741
1.5304E-6	-50.622314
1.530445E-6	-50.595831
1.53049E-6	-50.648456
1.530535E-6	-51.42125
1.53058E-6	-53.799681
1.530625E-6	-58.648673
1.53067E-6	-64.745664
1.530715E-6	-69.104481
1.53076E-6	-69.566377
1.530805E-6	-67.670039
1.53085E-6	-63.054825
1.530895E-6	-52.866775
1.53094E-6	-37.097427
1.530985E-6	-30.83704
1.53103E-6	-27.94525
1.531075E-6	-27.130946
1.53112E-6	-26.946486
1.531165E-6	-26.878226
1.53121E-6	-26.857113
1.531255E-6	-27.033348
1.5313E-6	-28.51089
1.531345E-6	-32.400301
1.53139E-6	-40.559123
1.531435E-6	-51.558336
1.53148E-6	-60.266874
1.531525E-6	-65.234582
1.53157E-6	-68.113527
1.531615E-6	-69.28118
1.53166E-6	-66.736641
1.531705E-6	-59.100949
1.53175E-6	-53.620102
1.531795E-6	-51.273194
1.53184E-6	-50.509029
1.531885E-6	-50.372993
1.53193E-6	-50.37536
1.531975E-6	-50.418185
1.53202E-6	-50.430156
1.532065E-6	-50.603809
1.53211E-6	-51.680023
1.532155E-6	-54.623068
1.5322E-6	-59.710223
1.532245E-6	-66.131445
1.53229E-6	-69.370422
1.532335E-6	-69.197344
1.53238E-6	-66.823545
1.532425E-6	-61.418239
1.53247E-6	-49.175737
1.532515E-6	-35.199931
1.53256E-6	-29.742846
1.532605E-6	-27.520267
1.53265E-6	-26.976691
1.532695E-6	-26.933606
1.53274E-6	-26.976691
1.532785E-6	-26.987529
1.53283E-6	-27.449688
1.532875E-6	-29.385475
1.53292E-6	-34.066032
1.532965E-6	-43.158731
1.53301E-6	-54.560561
1.533055E-6	-61.866859
1.5331E-6	-66.216021
1.533145E-6	-68.645493
1.53319E-6	-69.484616
1.533235E-6	-65.751184
1.53328E-6	-58.273971
1.533325E-6	-53.538905
1.53337E-6	-51.546539
1.533415E-6	-50.983782
1.53346E-6	-50.9232
1.533505E-6	-50.967472
1.53355E-6	-51.062382
1.533595E-6	-51.113713
1.53364E-6	-51.410419
1.533685E-6	-52.810833
1.53373E-6	-56.111886
1.533775E-6	-61.332992
1.53382E-6	-67.435228
1.533865E-6	-69.897
1.53391E-6	-69.233596
1.533955E-6	-66.371407
1.534E-6	-60.482255
1.534045E-6	-47.274622
1.53409E-6	-34.245812
1.534135E-6	-29.208188
1.53418E-6	-27.212464
1.534225E-6	-26.827727
1.53427E-6	-26.893067
1.534315E-6	-26.92504
1.53436E-6	-27.057543
1.534405E-6	-27.587026
1.53445E-6	-29.779843
1.534495E-6	-34.824083
1.53454E-6	-44.154426
1.534585E-6	-55.284149
1.53463E-6	-62.556288
1.534675E-6	-66.623411
1.53472E-6	-68.910969
1.534765E-6	-69.629721
1.53481E-6	-65.760991
1.534855E-6	-58.85389
1.5349E-6	-54.634416
1.534945E-6	-52.894596
1.53499E-6	-52.458046
1.535035E-6	-52.420728
1.53508E-6	-52.476442
1.535125E-6	-52.505729
1.53517E-6	-52.53911
1.535215E-6	-52.914092
1.53526E-6	-54.387793
1.535305E-6	-57.988761
1.53535E-6	-63.327339
1.535395E-6	-68.548036
1.53544E-6	-69.943906
1.535485E-6	-69.303319
1.53553E-6	-66.169031
1.535575E-6	-60.061671
1.53562E-6	-46.445485
1.535665E-6	-33.993538
1.53571E-6	-29.122186
1.535755E-6	-27.164726
1.5358E-6	-26.867657
1.535845E-6	-26.890944
1.53589E-6	-26.976691
1.535935E-6	-27.090754
1.53598E-6	-27.723704
1.536025E-6	-29.995659
1.53607E-6	-35.734887
1.536115E-6	-45.721894
1.53616E-6	-56.470461
1.536205E-6	-62.344059
1.53625E-6	-67.146678
1.536295E-6	-69.200955
1.53634E-6	-69.633711
1.536385E-6	-66.447401
1.53643E-6	-59.978339
1.536475E-6	-55.826944
1.53652E-6	-54.179366
1.536565E-6	-53.774751
1.53661E-6	-53.747905
1.536655E-6	-53.771645
1.5367E-6	-53.785121
1.536745E-6	-53.825803
1.53679E-6	-54.194171
1.536835E-6	-55.670307
1.53688E-6	-59.111554
1.536925E-6	-64.417716
1.53697E-6	-69.069287
1.537015E-6	-69.97402
1.53706E-6	-69.347939
1.537105E-6	-66.223296
1.53715E-6	-60.239712
1.537195E-6	-46.609463
1.53724E-6	-33.887016
1.537285E-6	-29.157813
1.53733E-6	-27.260732
1.537375E-6	-26.871882
1.53742E-6	-26.878226
1.537465E-6	-26.895191
1.53751E-6	-26.940041
1.537555E-6	-27.512913
1.5376E-6	-29.796387
1.537645E-6	-35.37153
1.53769E-6	-45.30178
1.537735E-6	-56.127882
1.53778E-6	-62.00246
1.537825E-6	-67.009287
1.53787E-6	-69.139963
1.537915E-6	-69.884296
1.53796E-6	-67.23768
1.538005E-6	-60.814979
1.53805E-6	-56.569855
1.538095E-6	-54.849213
1.53814E-6	-54.380642
1.538185E-6	-54.321505
1.53823E-6	-54.320331
1.538275E-6	-54.298074
1.53832E-6	-54.317983
1.538365E-6	-54.614263
1.53841E-6	-56.010189
1.538455E-6	-59.288547
1.5385E-6	-64.349791
1.538545E-6	-69.023957
1.53859E-6	-70.063434
1.538635E-6	-69.605859
1.53868E-6	-66.842395
1.538725E-6	-61.142431
1.53877E-6	-47.929045
1.538815E-6	-34.993519
1.53886E-6	-29.714287
1.538905E-6	-27.594508
1.53895E-6	-27.10634
1.538995E-6	-27.007107
1.53904E-6	-26.987529
1.539085E-6	-27.013652
1.53913E-6	-27.399286
1.539175E-6	-29.484616
1.53922E-6	-34.621809
1.539265E-6	-43.966391
1.53931E-6	-55.453076
1.539355E-6	-62.433639
1.5394E-6	-66.798537
1.539445E-6	-69.069287
1.53949E-6	-69.888526
1.539535E-6	-67.599502
1.53958E-6	-60.996875
1.539625E-6	-56.665527
1.53967E-6	-54.758636
1.539715E-6	-54.19075
1.53976E-6	-54.068247
1.539805E-6	-54.067139
1.53985E-6	-54.05718
1.539895E-6	-54.05718
1.53994E-6	-54.293403
1.539985E-6	-55.52842
1.54003E-6	-58.703101
1.540075E-6	-63.631111
1.54012E-6	-68.544928
1.540165E-6	-69.888526
1.54021E-6	-69.542859
1.540255E-6	-67.297871
1.5403E-6	-61.951793
1.540345E-6	-49.991323
1.54039E-6	-35.807053
1.540435E-6	-30.011742
1.54048E-6	-27.607005
1.540525E-6	-26.940041
1.54057E-6	-26.802695
1.540615E-6	-26.744843
1.54066E-6	-26.7305
1.540705E-6	-27.026773
1.54075E-6	-28.827287
1.540795E-6	-33.408447
1.54084E-6	-42.290744
1.540885E-6	-52.914092
1.54093E-6	-61.280186
1.540975E-6	-66.032777
1.54102E-6	-68.709549
1.541065E-6	-69.677843
1.54111E-6	-67.929045
1.541155E-6	-61.377493
1.5412E-6	-56.499459
1.541245E-6	-54.367563
1.54129E-6	-53.65422
1.541335E-6	-53.479472
1.54138E-6	-53.41607
1.541425E-6	-53.410352
1.54147E-6	-53.397988
1.541515E-6	-53.564486
1.54156E-6	-54.584208
1.541605E-6	-57.316561
1.54165E-6	-61.907097
1.541695E-6	-67.525177
1.54174E-6	-69.75104
1.541785E-6	-69.613798
1.54183E-6	-67.796304
1.541875E-6	-63.181259
1.54192E-6	-53.116692
1.541965E-6	-36.85922
1.54201E-6	-30.659057
1.542055E-6	-27.856861
1.5421E-6	-27.024583
1.542145E-6	-26.880343
1.54219E-6	-26.813107
1.542235E-6	-26.755118
1.54228E-6	-26.878226
1.542325E-6	-28.215987
1.54237E-6	-31.909793
1.542415E-6	-39.503944
1.54246E-6	-50.722192
1.542505E-6	-59.730584
1.54255E-6	-64.766438
1.542595E-6	-68.187282
1.54264E-6	-69.336741
1.542685E-6	-68.725712
1.54273E-6	-62.551596
1.542775E-6	-56.920763
1.54282E-6	-54.193031
1.542865E-6	-53.247717
1.54291E-6	-53.039058
1.542955E-6	-53.018124
1.543E-6	-52.999889
1.543045E-6	-52.985184
1.54309E-6	-53.053071
1.543135E-6	-53.747905
1.54318E-6	-55.984272
1.543225E-6	-60.0975
1.54327E-6	-65.920995
1.543315E-6	-69.430951
1.54336E-6	-69.698052
1.543405E-6	-68.467951
1.54345E-6	-64.666093
1.543495E-6	-56.716204
1.54354E-6	-39.982663
1.543585E-6	-32.244624
1.54363E-6	-28.492436
1.543675E-6	-27.191941
1.54372E-6	-26.955095
1.543765E-6	-26.903698
1.54381E-6	-26.865546
1.543855E-6	-26.91009
1.5439E-6	-27.71343
1.543945E-6	-30.479829
1.54399E-6	-37.000571
1.544035E-6	-47.512913
1.54408E-6	-57.532553
1.544125E-6	-63.129172
1.54417E-6	-67.377863
1.544215E-6	-69.076303
1.54426E-6	-69.434763
1.544305E-6	-64.668637
1.54435E-6	-58.259402
1.544395E-6	-54.491604
1.54444E-6	-53.094495
1.544485E-6	-52.7417
1.54453E-6	-52.680891
1.544575E-6	-52.660808
1.54462E-6	-52.656803
1.544665E-6	-52.69137
1.54471E-6	-53.068889
1.544755E-6	-54.668637
1.5448E-6	-58.303256
1.544845E-6	-63.757179
1.54489E-6	-68.645493
1.544935E-6	-69.730584
1.54498E-6	-68.972234
1.545025E-6	-66.152883
1.54507E-6	-60.244763
1.545115E-6	-46.390281
1.54516E-6	-33.998987
1.545205E-6	-29.333014
1.54525E-6	-27.428016
1.545295E-6	-27.037737
1.54534E-6	-26.950788
1.545385E-6	-26.950788
1.54543E-6	-26.92932
1.545475E-6	-27.356545
1.54552E-6	-29.427144
1.545565E-6	-34.29107
1.54561E-6	-43.613111
1.545655E-6	-54.749552
1.5457E-6	-61.992829
1.545745E-6	-66.422557
1.54579E-6	-68.860566
1.545835E-6	-69.645703
1.54588E-6	-67.295541
1.545925E-6	-60.391964
1.54597E-6	-55.427238
1.546015E-6	-53.312415
1.54606E-6	-52.688143
1.546105E-6	-52.551596
1.54615E-6	-52.534436
1.546195E-6	-52.525105
1.54624E-6	-52.528213
1.546285E-6	-52.683307
1.54633E-6	-53.693688
1.546375E-6	-56.516951
1.54642E-6	-61.233204
1.546465E-6	-67.081873
1.54651E-6	-69.492337
1.546555E-6	-69.446217
1.5466E-6	-67.872798
1.546645E-6	-63.243133
1.54669E-6	-53.008563
1.546735E-6	-37.503126
1.54678E-6	-30.916759
1.546825E-6	-27.93444
1.54687E-6	-27.064165
1.546915E-6	-26.893067
1.54696E-6	-26.846595
1.547005E-6	-26.838199
1.54705E-6	-26.978856
1.547095E-6	-28.107905
1.54714E-6	-31.436941
1.547185E-6	-39.072794
1.54723E-6	-49.574245
1.547275E-6	-58.890738
1.54732E-6	-64.144265
1.547365E-6	-67.846268
1.54741E-6	-69.318141
1.547455E-6	-69.136402
1.5475E-6	-63.304042
1.547545E-6	-57.004927
1.54759E-6	-53.915809
1.547635E-6	-52.72947
1.54768E-6	-52.468768
1.547725E-6	-52.478747
1.54777E-6	-52.498003
1.547815E-6	-52.515019
1.54786E-6	-52.584545
1.547905E-6	-53.053071
1.54795E-6	-54.869156
1.547995E-6	-58.894103
1.54804E-6	-64.42132
1.548085E-6	-68.8706
1.54813E-6	-69.746941
1.548175E-6	-68.85389
1.54822E-6	-65.873715
1.548265E-6	-59.562449
1.54831E-6	-43.522259
1.548355E-6	-33.712025
1.5484E-6	-29.08333
1.548445E-6	-27.281584
1.54849E-6	-26.895191
1.548535E-6	-26.804776
1.54858E-6	-26.79646
1.548625E-6	-26.827727
1.54867E-6	-27.253804
1.548715E-6	-29.359166
1.54876E-6	-34.418917
1.548805E-6	-43.725317
1.54885E-6	-54.87983
1.548895E-6	-62.065589
1.54894E-6	-66.395959
1.548985E-6	-68.703101
1.54903E-6	-69.605859
1.549075E-6	-66.981023
1.54912E-6	-60.234208
1.549165E-6	-55.418156
1.54921E-6	-53.339503
1.549255E-6	-52.650402
1.5493E-6	-52.535215
1.549345E-6	-52.528213
1.54939E-6	-52.511146
1.549435E-6	-52.522775
1.54948E-6	-52.654402
1.549525E-6	-53.615107
1.54957E-6	-56.226937
1.549615E-6	-60.891622
1.54966E-6	-66.653452
1.549705E-6	-69.531148
1.54975E-6	-69.41574
1.549795E-6	-67.999707
1.54984E-6	-63.536943
1.549885E-6	-54.505063
1.54993E-6	-38.356471
1.549975E-6	-31.254602
1.55002E-6	-28.041003
1.550065E-6	-27.028963
1.55011E-6	-26.850799
1.550155E-6	-26.811023
1.5502E-6	-26.821455
1.550245E-6	-26.897316
1.55029E-6	-27.670039
1.550335E-6	-30.465786
1.55038E-6	-37.23768
1.550425E-6	-47.975117
1.55047E-6	-57.614521
1.550515E-6	-63.223018
1.55056E-6	-67.520267
1.550605E-6	-69.115095
1.55065E-6	-69.411945
1.550695E-6	-64.451476
1.55074E-6	-58.024438
1.550785E-6	-54.280584
1.55083E-6	-52.859218
1.550875E-6	-52.501092
1.55092E-6	-52.445825
1.550965E-6	-52.445063
1.55101E-6	-52.408612
1.551055E-6	-52.429078
1.5511E-6	-52.753146
1.551145E-6	-54.241197
1.55119E-6	-57.74174
1.551235E-6	-63.114912
1.55128E-6	-68.178708
1.551325E-6	-69.661743
1.55137E-6	-69.132843
1.551415E-6	-66.991872
1.55146E-6	-61.523657
1.551505E-6	-49.500071
1.55155E-6	-35.856953
1.551595E-6	-29.991323
1.55164E-6	-27.599502
1.551685E-6	-26.991872
1.55173E-6	-26.867657
1.551775E-6	-26.857113
1.55182E-6	-26.848697
1.551865E-6	-27.031155
1.55191E-6	-28.492436
1.551955E-6	-32.379219
1.552E-6	-40.374413
1.552045E-6	-51.281353
1.55209E-6	-60.136762
1.552135E-6	-65.066814
1.55218E-6	-68.374356
1.552225E-6	-69.37418
1.55227E-6	-68.569852
1.552315E-6	-62.107014
1.55236E-6	-56.23423
1.552405E-6	-53.501785
1.55245E-6	-52.529768
1.552495E-6	-52.332155
1.55254E-6	-52.329926
1.552585E-6	-52.306227
1.55263E-6	-52.296636
1.552675E-6	-52.358986
1.55272E-6	-52.910695
1.552765E-6	-55.01276
1.55281E-6	-59.161392
1.552855E-6	-64.800408
1.5529E-6	-68.90759
1.552945E-6	-69.625735
1.55299E-6	-68.709549
1.553035E-6	-65.466817
1.55308E-6	-59.065783
1.553125E-6	-42.717274
1.55317E-6	-33.182162
1.553215E-6	-28.890738
1.55326E-6	-27.279262
1.553305E-6	-26.907958
1.55335E-6	-26.838199
1.553395E-6	-26.800616
1.55344E-6	-26.834007
1.553485E-6	-27.258422
1.55353E-6	-29.359166
1.553575E-6	-34.310946
1.55362E-6	-43.607128
1.553665E-6	-54.435769
1.55371E-6	-61.77309
1.553755E-6	-66.219657
1.5538E-6	-68.639139
1.553845E-6	-69.698052
1.55389E-6	-67.180581
1.553935E-6	-60.153377
1.55398E-6	-55.127202
1.554025E-6	-52.940508
1.55407E-6	-52.281921
1.554115E-6	-52.152401
1.55416E-6	-52.136746
1.554205E-6	-52.126812
1.55425E-6	-52.126812
1.554295E-6	-52.243168
1.55434E-6	-53.090954
1.554385E-6	-55.573635
1.55443E-6	-59.909743
1.554475E-6	-65.956795
1.55452E-6	-69.411945
1.554565E-6	-69.629721
1.55461E-6	-68.377344
1.554655E-6	-64.343883
1.5547E-6	-56.190655
1.554745E-6	-39.649707
1.55479E-6	-31.99833
1.554835E-6	-28.535619
1.55488E-6	-27.276942
1.554925E-6	-27.066374
1.55497E-6	-26.987529
1.555015E-6	-26.976691
1.55506E-6	-27.009287
1.555105E-6	-27.547342
1.55515E-6	-29.905491
1.555195E-6	-35.77082
1.55524E-6	-46.0206
1.555285E-6	-56.256183
1.55533E-6	-61.982534
1.555375E-6	-66.970201
1.55542E-6	-68.837244
1.555465E-6	-69.457701
1.55551E-6	-65.751184
1.555555E-6	-58.814046
1.5556E-6	-54.429743
1.555645E-6	-52.614573
1.55569E-6	-52.087305
1.555735E-6	-51.979792
1.55578E-6	-51.950432
1.555825E-6	-51.929388
1.55587E-6	-51.968161
1.555915E-6	-52.16025
1.55596E-6	-53.214816
1.556005E-6	-56.074789
1.55605E-6	-60.831251
1.556095E-6	-66.708056
1.55614E-6	-69.535048
1.556185E-6	-69.637705
1.55623E-6	-68.005191
1.556275E-6	-63.666326
1.55632E-6	-54.556839
1.556365E-6	-38.285661
1.55641E-6	-31.413425
1.556455E-6	-28.184422
1.5565E-6	-27.10411
1.556545E-6	-26.937895
1.55659E-6	-26.91009
1.556635E-6	-26.916491
1.55668E-6	-26.987529
1.556725E-6	-27.723704
1.55677E-6	-30.42297
1.556815E-6	-36.948637
1.55686E-6	-47.151183
1.556905E-6	-57.035542
1.55695E-6	-62.859218
1.556995E-6	-67.351822
1.55704E-6	-69.076303
1.557085E-6	-69.41574
1.55713E-6	-65.278289
1.557175E-6	-58.368386
1.55722E-6	-54.155557
1.557265E-6	-52.515019
1.55731E-6	-52.077484
1.557355E-6	-52.008663
1.5574E-6	-52.012803
1.557445E-6	-52.018329
1.55749E-6	-52.016947
1.557535E-6	-52.226457
1.55758E-6	-53.37809
1.557625E-6	-56.362001
1.55767E-6	-61.330042
1.557715E-6	-67.044329
1.55776E-6	-69.590023
1.557805E-6	-69.538952
1.55785E-6	-67.891466
1.557895E-6	-63.239469
1.55794E-6	-53.736596
1.557985E-6	-37.79369
1.55803E-6	-31.178171
1.558075E-6	-27.93714
1.55812E-6	-26.8867
1.558165E-6	-26.703988
1.55821E-6	-26.68168
1.558255E-6	-26.691805
1.5583E-6	-26.771607
1.558345E-6	-27.597004
1.55839E-6	-30.521743
1.558435E-6	-37.382615
1.55848E-6	-47.670039
1.558525E-6	-57.520267
1.55857E-6	-62.994693
1.558615E-6	-67.498241
1.55866E-6	-69.034376
1.558705E-6	-69.476909
1.55875E-6	-65.165554
1.558795E-6	-58.356471
1.55884E-6	-54.31329
1.558885E-6	-52.706732
1.55893E-6	-52.29811
1.558975E-6	-52.25629
1.55902E-6	-52.257751
1.559065E-6	-52.250453
1.55911E-6	-52.257021
1.559155E-6	-52.475674
1.5592E-6	-53.649186
1.559245E-6	-56.615435
1.55929E-6	-61.598312
1.559335E-6	-67.235382
1.55938E-6	-69.621752
1.559425E-6	-69.621752
1.55947E-6	-68.150248
1.559515E-6	-63.201181
1.55956E-6	-53.504704
1.559605E-6	-37.579558
1.55965E-6	-30.961507
1.559695E-6	-27.988761
1.55974E-6	-27.064165
1.559785E-6	-26.942188
1.55983E-6	-26.955095
1.559875E-6	-27.011469
1.55992E-6	-27.088532
1.559965E-6	-27.931741
1.56001E-6	-30.746363
1.560055E-6	-37.544873
1.5601E-6	-47.801536
1.560145E-6	-57.746907
1.56019E-6	-63.19302
1.560235E-6	-67.500682
1.56028E-6	-69.115095
1.560325E-6	-69.681877
1.56037E-6	-65.920995
1.560415E-6	-59.157813
1.56046E-6	-54.93901
1.560505E-6	-53.266104
1.56055E-6	-52.862575
1.560595E-6	-52.795926
1.56064E-6	-52.803373
1.560685E-6	-52.812493
1.56073E-6	-52.844144
1.560775E-6	-53.048687
1.56082E-6	-54.163479
1.560865E-6	-57.007107
1.56091E-6	-61.851533
1.560955E-6	-67.428016
1.561E-6	-69.685915
1.561045E-6	-70.208615
1.56109E-6	-68.4649
1.561135E-6	-63.835245
1.56118E-6	-54.817493
1.561225E-6	-38.471004
1.56127E-6	-31.172478
1.561315E-6	-27.961515
1.56136E-6	-26.946486
1.561405E-6	-26.806857
1.56145E-6	-26.827727
1.561495E-6	-26.893067
1.56154E-6	-27.000571
1.561585E-6	-27.715996
1.56163E-6	-30.3711
1.561675E-6	-36.848697
1.56172E-6	-46.882461
1.561765E-6	-57.002748
1.56181E-6	-62.682501
1.561855E-6	-67.411234
1.5619E-6	-69.226321
1.561945E-6	-70.04014
1.56199E-6	-67.452103
1.562035E-6	-60.739149
1.56208E-6	-56.221476
1.562125E-6	-54.255057
1.56217E-6	-53.704885
1.562215E-6	-53.616106
1.56226E-6	-53.631111
1.562305E-6	-53.661277
1.56235E-6	-53.709984
1.562395E-6	-53.837346
1.56244E-6	-54.712118
1.562485E-6	-57.128704
1.56253E-6	-61.334764
1.562575E-6	-66.959405
1.56262E-6	-69.734667
1.562665E-6	-69.931063
1.56271E-6	-69.048306
1.562755E-6	-65.162701
1.5628E-6	-58.178708
1.562845E-6	-41.247072
1.56289E-6	-32.422245
1.562935E-6	-28.332739
1.56298E-6	-26.888822
1.563025E-6	-26.661499
1.56307E-6	-26.695862
1.563115E-6	-26.775739
1.56316E-6	-26.88458
1.563205E-6	-27.377863
1.56325E-6	-29.593977
1.563295E-6	-34.757337
1.56334E-6	-44.532106
1.563385E-6	-55.204247
1.56343E-6	-62.270918
