Wavelength (nm)	Power (dBm)
1.525E-6	-73.72327
1.525045E-6	-73.910463
1.52509E-6	-74.645793
1.525135E-6	-76.104795
1.52518E-6	-79.54677
1.525225E-6	-83.255982
1.52527E-6	-86.169031
1.525315E-6	-88.124793
1.52536E-6	-87.358908
1.525405E-6	-86.5738
1.52545E-6	-85.184141
1.525495E-6	-80.254423
1.52554E-6	-75.000381
1.525585E-6	-73.092725
1.52563E-6	-72.504956
1.525675E-6	-72.447351
1.52572E-6	-72.35525
1.525765E-6	-72.007973
1.52581E-6	-71.921269
1.525855E-6	-72.334384
1.5259E-6	-73.985919
1.525945E-6	-77.363639
1.52599E-6	-81.901038
1.526035E-6	-85.929492
1.52608E-6	-86.649435
1.526125E-6	-86.869769
1.52617E-6	-91.237822
1.526215E-6	-90.940962
1.52626E-6	-79.742846
1.526305E-6	-74.069356
1.52635E-6	-71.89633
1.526395E-6	-71.297717
1.52644E-6	-71.082396
1.526485E-6	-71.024829
1.52653E-6	-70.781055
1.526575E-6	-70.743785
1.52662E-6	-70.94798
1.526665E-6	-72.155254
1.52671E-6	-75.212892
1.526755E-6	-79.273825
1.5268E-6	-83.510548
1.526845E-6	-85.630427
1.52689E-6	-86.324577
1.526935E-6	-89.303319
1.52698E-6	-89.633711
1.527025E-6	-80.967472
1.52707E-6	-73.962063
1.527115E-6	-71.158846
1.52716E-6	-70.018715
1.527205E-6	-69.829667
1.52725E-6	-69.875846
1.527295E-6	-69.669786
1.52734E-6	-69.694003
1.527385E-6	-69.681877
1.52743E-6	-70.549748
1.527475E-6	-72.974833
1.52752E-6	-78.784402
1.527565E-6	-82.50805
1.52761E-6	-87.13319
1.527655E-6	-120
1.5277E-6	-85.246194
1.527745E-6	-85.292956
1.52779E-6	-82.996425
1.527835E-6	-73.995717
1.52788E-6	-70.807127
1.527925E-6	-69.336741
1.52797E-6	-68.897471
1.528015E-6	-68.794261
1.52806E-6	-68.76475
1.528105E-6	-68.814046
1.52815E-6	-68.794261
1.528195E-6	-69.325572
1.52824E-6	-71.195866
1.528285E-6	-75.573635
1.52833E-6	-80.205882
1.528375E-6	-84.968906
1.52842E-6	-91.16793
1.528465E-6	-86.115435
1.52851E-6	-87.013652
1.528555E-6	-83.87428
1.5286E-6	-75.275361
1.528645E-6	-70.798245
1.52869E-6	-68.85389
1.528735E-6	-68.22175
1.52878E-6	-68.127614
1.528825E-6	-68.150248
1.52887E-6	-68.068754
1.528915E-6	-67.975117
1.52896E-6	-68.422411
1.529005E-6	-69.771594
1.52905E-6	-73.170431
1.529095E-6	-78.768019
1.52914E-6	-83.37431
1.529185E-6	-87.969671
1.52923E-6	-87.89414
1.529275E-6	-87.171514
1.52932E-6	-85.005879
1.529365E-6	-77.228494
1.52941E-6	-71.439965
1.529455E-6	-68.843895
1.5295E-6	-67.762445
1.529545E-6	-67.599502
1.52959E-6	-67.614521
1.529635E-6	-67.520267
1.52968E-6	-67.584535
1.529725E-6	-67.700623
1.52977E-6	-68.827287
1.529815E-6	-71.260984
1.52986E-6	-76.708056
1.529905E-6	-81.205027
1.52995E-6	-85.394028
1.529995E-6	-86.42637
1.53004E-6	-87.983298
1.530085E-6	-86.827727
1.53013E-6	-80.749459
1.530175E-6	-72.611402
1.53022E-6	-69.115095
1.530265E-6	-67.542406
1.53031E-6	-67.217038
1.530355E-6	-67.23998
1.5304E-6	-67.153437
1.530445E-6	-67.126462
1.53049E-6	-67.207895
1.530535E-6	-67.785858
1.53058E-6	-69.783973
1.530625E-6	-73.951262
1.53067E-6	-78.992849
1.530715E-6	-86.151092
1.53076E-6	-87.354183
1.530805E-6	-88.167302
1.53085E-6	-86.172627
1.530895E-6	-83.289198
1.53094E-6	-74.148778
1.530985E-6	-69.763361
1.53103E-6	-67.617029
1.531075E-6	-67.189666
1.53112E-6	-67.099654
1.531165E-6	-66.978856
1.53121E-6	-66.970201
1.531255E-6	-66.955095
1.5313E-6	-67.288557
1.531345E-6	-68.810742
1.53139E-6	-72.012803
1.531435E-6	-77.915586
1.53148E-6	-83.049563
1.531525E-6	-88.794261
1.53157E-6	-86.798537
1.531615E-6	-88.195874
1.53166E-6	-86.055483
1.531705E-6	-76.561977
1.53175E-6	-70.868222
1.531795E-6	-68.244882
1.53184E-6	-67.153437
1.531885E-6	-66.991872
1.53193E-6	-67.004927
1.531975E-6	-67.066374
1.53202E-6	-67.050931
1.532065E-6	-67.155693
1.53211E-6	-68.213108
1.532155E-6	-70.346101
1.5322E-6	-75.374523
1.532245E-6	-80.595831
1.53229E-6	-84.717262
1.532335E-6	-86.895191
1.53238E-6	-86.183435
1.532425E-6	-85.888856
1.53247E-6	-81.608992
1.532515E-6	-72.989504
1.53256E-6	-69.164974
1.532605E-6	-67.461776
1.53265E-6	-67.173779
1.532695E-6	-67.146678
1.53274E-6	-67.18285
1.532785E-6	-67.18285
1.53283E-6	-67.230789
1.532875E-6	-67.843624
1.53292E-6	-69.625735
1.532965E-6	-73.304042
1.53301E-6	-78.4649
1.533055E-6	-84.613006
1.5331E-6	-88.398317
1.533145E-6	-86.554113
1.53319E-6	-88.184422
1.533235E-6	-84.623068
1.53328E-6	-75.643149
1.533325E-6	-70.790423
1.53337E-6	-68.554258
1.533415E-6	-67.692957
1.53346E-6	-67.564659
1.533505E-6	-67.587026
1.53355E-6	-67.629592
1.533595E-6	-67.762445
1.53364E-6	-67.93444
1.533685E-6	-69.222688
1.53373E-6	-71.807852
1.533775E-6	-77.20105
1.53382E-6	-81.483137
1.533865E-6	-84.55932
1.53391E-6	-87.442452
1.533955E-6	-86.959405
1.534E-6	-87.961515
1.534045E-6	-80.871936
1.53409E-6	-73.562513
1.534135E-6	-69.854795
1.53418E-6	-68.579235
1.534225E-6	-68.268137
1.53427E-6	-68.31208
1.534315E-6	-68.341624
1.53436E-6	-68.315025
1.534405E-6	-68.359447
1.53445E-6	-69.0309
1.534495E-6	-70.822845
1.53454E-6	-75.343198
1.534585E-6	-79.812995
1.53463E-6	-84.61175
1.534675E-6	-88.353498
1.53472E-6	-86.846595
1.534765E-6	-85.499049
1.53481E-6	-84.19075
1.534855E-6	-75.99462
1.5349E-6	-71.859523
1.534945E-6	-69.718356
1.53499E-6	-69.003194
1.535035E-6	-68.985966
1.53508E-6	-68.979095
1.535125E-6	-68.968807
1.53517E-6	-69.069287
1.535215E-6	-69.219058
1.53526E-6	-70.559617
1.535305E-6	-73.599163
1.53535E-6	-79.086848
1.535395E-6	-83.088301
1.53544E-6	-85.841923
1.535485E-6	-86.365761
1.53553E-6	-89.453869
1.535575E-6	-86.703988
1.53562E-6	-80.790944
1.535665E-6	-74.166878
1.53571E-6	-71.097467
1.535755E-6	-69.901244
1.5358E-6	-69.609827
1.535845E-6	-69.681877
1.53589E-6	-69.706162
1.535935E-6	-69.738755
1.53598E-6	-69.681877
1.536025E-6	-70.444084
1.53607E-6	-72.346295
1.536115E-6	-76.90157
1.53616E-6	-82.703493
1.536205E-6	-85.152732
1.53625E-6	-89.846402
1.536295E-6	-84.551881
1.53634E-6	-87.178312
1.536385E-6	-84.091582
1.53643E-6	-78.175853
1.536475E-6	-72.949064
1.53652E-6	-70.735547
1.536565E-6	-70.366372
1.53661E-6	-70.184532
1.536655E-6	-70.174122
1.5367E-6	-70.221393
1.536745E-6	-70.242925
1.53679E-6	-70.486625
1.536835E-6	-71.763954
1.53688E-6	-74.749552
1.536925E-6	-78.833923
1.53697E-6	-83.068889
1.537015E-6	-86.19427
1.53706E-6	-85.572068
1.537105E-6	-88.661419
1.53715E-6	-85.949953
1.537195E-6	-82.303273
1.53724E-6	-75.172693
1.537285E-6	-72.014184
1.53733E-6	-70.729891
1.537375E-6	-70.590853
1.53742E-6	-70.681863
1.537465E-6	-70.50854
1.53751E-6	-70.595831
1.537555E-6	-70.680847
1.5376E-6	-71.170772
1.537645E-6	-73.157832
1.53769E-6	-77.002748
1.537735E-6	-81.492313
1.53778E-6	-85.979106
1.537825E-6	-84.66355
1.53787E-6	-86.769543
1.537915E-6	-88.501653
1.53796E-6	-84.466025
1.538005E-6	-78.938091
1.53805E-6	-73.532043
1.538095E-6	-71.47703
1.53814E-6	-70.91247
1.538185E-6	-70.778976
1.53823E-6	-70.722192
1.538275E-6	-70.62432
1.53832E-6	-70.736576
1.538365E-6	-70.942581
1.53841E-6	-72.03495
1.538455E-6	-74.70698
1.5385E-6	-79.605859
1.538545E-6	-83.967473
1.53859E-6	-84.378261
1.538635E-6	-87.316561
1.53868E-6	-89.0309
1.538725E-6	-86.827727
1.53877E-6	-82.0412
1.538815E-6	-75.456125
1.53886E-6	-72.39276
1.538905E-6	-71.091321
1.53895E-6	-70.771708
1.538995E-6	-70.612302
1.53904E-6	-70.665633
1.539085E-6	-70.63235
1.53913E-6	-70.616304
1.539175E-6	-71.140737
1.53922E-6	-73.167728
1.539265E-6	-76.627405
1.53931E-6	-80.996329
1.539355E-6	-84.441803
1.5394E-6	-90.113965
1.539445E-6	-90.03357
1.53949E-6	-87.562181
1.539535E-6	-85.090588
1.53958E-6	-79.590023
1.539625E-6	-73.637127
1.53967E-6	-71.340082
1.539715E-6	-70.69051
1.53976E-6	-70.494404
1.539805E-6	-70.485653
1.53985E-6	-70.443122
1.539895E-6	-70.397195
1.53994E-6	-70.57149
1.539985E-6	-71.580777
1.54003E-6	-74.260846
1.540075E-6	-79.562449
1.54012E-6	-90.60331
1.540165E-6	-86.053732
1.54021E-6	-86.223296
1.540255E-6	-86.957249
1.5403E-6	-88.76475
1.540345E-6	-83.809067
1.54039E-6	-75.540846
1.540435E-6	-72.205478
1.54048E-6	-70.741724
1.540525E-6	-70.168701
1.54057E-6	-70.157428
1.540615E-6	-70.227338
1.54066E-6	-70.088182
1.540705E-6	-70.154727
1.54075E-6	-70.661585
1.540795E-6	-72.182446
1.54084E-6	-75.592483
1.540885E-6	-80.099277
1.54093E-6	-86.265363
1.540975E-6	-85.948245
1.54102E-6	-88.021683
1.541065E-6	-85.692801
1.54111E-6	-89.013563
1.541155E-6	-80.25166
1.5412E-6	-73.621102
1.541245E-6	-71.065712
1.54129E-6	-70.192696
1.541335E-6	-69.875846
1.54138E-6	-70.025262
1.541425E-6	-69.829667
1.54147E-6	-69.863203
1.541515E-6	-69.982663
1.54156E-6	-70.745848
1.541605E-6	-73.052194
1.54165E-6	-77.942545
1.541695E-6	-81.772437
1.54174E-6	-86.68168
1.541785E-6	-86.530605
1.54183E-6	-86.197888
1.541875E-6	-86.987529
1.54192E-6	-86.133227
1.541965E-6	-76.369524
1.54201E-6	-72.240984
1.542055E-6	-70.426801
1.5421E-6	-69.800533
1.542145E-6	-69.726504
1.54219E-6	-69.722428
1.542235E-6	-69.746941
1.54228E-6	-69.767475
1.542325E-6	-69.913998
1.54237E-6	-71.196438
1.542415E-6	-74.253901
1.54246E-6	-79.582127
1.542505E-6	-84.423725
1.54255E-6	-86.718243
1.542595E-6	-85.828606
1.54264E-6	-88.021683
1.542685E-6	-86.920763
1.54273E-6	-81.72954
1.542775E-6	-74.361631
1.54282E-6	-71.247072
1.542865E-6	-69.897
1.54291E-6	-69.597934
1.542955E-6	-69.515582
1.543E-6	-69.633711
1.543045E-6	-69.488475
1.54309E-6	-69.527251
1.543135E-6	-70.058149
1.54318E-6	-71.769172
1.543225E-6	-75.774102
1.54327E-6	-80.459023
1.543315E-6	-85.135695
1.54336E-6	-88.133261
1.543405E-6	-91.082953
1.54345E-6	-88.92112
1.543495E-6	-85.395532
1.54354E-6	-79.048306
1.543585E-6	-72.902214
1.54363E-6	-70.35929
1.543675E-6	-69.590023
1.54372E-6	-69.30702
1.543765E-6	-69.393022
1.54381E-6	-69.389247
1.543855E-6	-69.347939
1.5439E-6	-69.41574
1.543945E-6	-70.369681
1.54399E-6	-72.732728
1.544035E-6	-77.888795
1.54408E-6	-82.043285
1.544125E-6	-83.993538
1.54417E-6	-87.734001
1.544215E-6	-87.535014
1.54426E-6	-87.347104
1.544305E-6	-84.139756
1.54435E-6	-75.641556
1.544395E-6	-71.556471
1.54444E-6	-69.871628
1.544485E-6	-69.404366
1.54453E-6	-69.30702
1.544575E-6	-69.292235
1.54462E-6	-69.325572
1.544665E-6	-69.226321
1.54471E-6	-69.609827
1.544755E-6	-70.898026
1.5448E-6	-73.87428
1.544845E-6	-78.136088
1.54489E-6	-82.263598
1.544935E-6	-83.092725
1.54498E-6	-82.617746
1.545025E-6	-76.695862
1.54507E-6	-69.665762
1.545115E-6	-55.272436
1.54516E-6	-41.771131
1.545205E-6	-36.755118
1.54525E-6	-34.752146
1.545295E-6	-34.262004
1.54534E-6	-34.181641
1.545385E-6	-34.146521
1.54543E-6	-34.171415
1.545475E-6	-34.546929
1.54552E-6	-36.577748
1.545565E-6	-41.123827
1.54561E-6	-50.76031
1.545655E-6	-62.131776
1.5457E-6	-68.784402
1.545745E-6	-74.274769
1.54579E-6	-78.748442
1.545835E-6	-81.408016
1.54588E-6	-83.036436
1.545925E-6	-78.33866
1.54597E-6	-72.657604
1.546015E-6	-70.112182
1.54606E-6	-69.366666
1.546105E-6	-69.229957
1.54615E-6	-69.233596
1.546195E-6	-69.168559
1.54624E-6	-69.161392
1.546285E-6	-69.240882
1.54633E-6	-69.918258
1.546375E-6	-72.376216
1.54642E-6	-76.852903
1.546465E-6	-81.214782
1.54651E-6	-84.940365
1.546555E-6	-86.878226
1.5466E-6	-87.996968
1.546645E-6	-89.503944
1.54669E-6	-83.745846
1.546735E-6	-75.788899
1.54678E-6	-71.681302
1.546825E-6	-69.804683
1.54687E-6	-69.240882
1.546915E-6	-69.208188
1.54696E-6	-69.129288
1.547005E-6	-69.157813
1.54705E-6	-69.255493
1.547095E-6	-69.385475
1.54714E-6	-70.574463
1.547185E-6	-73.364875
1.54723E-6	-79.193735
1.547275E-6	-83.682519
1.54732E-6	-85.00863
1.547365E-6	-87.772835
1.54741E-6	-85.996347
1.547455E-6	-88.297383
1.5475E-6	-82.837462
1.547545E-6	-74.765137
1.54759E-6	-71.070154
1.547635E-6	-69.582127
1.54768E-6	-69.175737
1.547725E-6	-69.090369
1.54777E-6	-69.108016
1.547815E-6	-69.172146
1.54786E-6	-69.186527
1.547905E-6	-69.500071
1.54795E-6	-71.076271
1.547995E-6	-74.446637
1.54804E-6	-78.716007
1.548085E-6	-83.801765
1.54813E-6	-87.442452
1.548175E-6	-87.682756
1.54822E-6	-85.223001
1.548265E-6	-86.861328
1.54831E-6	-80.005215
1.548355E-6	-73.715089
1.5484E-6	-70.469172
1.548445E-6	-69.362914
1.54849E-6	-69.208188
1.548535E-6	-69.200955
1.54858E-6	-69.048306
1.548625E-6	-69.182927
1.54867E-6	-69.143527
1.548715E-6	-69.653715
1.54876E-6	-71.478861
1.548805E-6	-75.451551
1.54885E-6	-80.281677
1.548895E-6	-85.131446
1.54894E-6	-88.271053
1.548985E-6	-87.399286
1.54903E-6	-85.424209
1.549075E-6	-84.88384
1.54912E-6	-78.623295
1.549165E-6	-72.742517
1.54921E-6	-70.200876
1.549255E-6	-69.28118
1.5493E-6	-69.161392
1.549345E-6	-69.093893
1.54939E-6	-69.122186
1.549435E-6	-69.097419
1.54948E-6	-69.172146
1.549525E-6	-69.871628
1.54957E-6	-72.111955
1.549615E-6	-76.250684
1.54966E-6	-79.677843
1.549705E-6	-82.512694
1.54975E-6	-83.296614
1.549795E-6	-80.628835
1.54984E-6	-73.175841
1.549885E-6	-64.220489
1.54993E-6	-48.33866
1.549975E-6	-38.645493
1.55002E-6	-35.332806
1.550065E-6	-34.174821
1.55011E-6	-33.982659
1.550155E-6	-33.94695
1.5502E-6	-33.936186
1.550245E-6	-33.993538
1.55029E-6	-34.74696
1.550335E-6	-37.675121
1.55038E-6	-43.894463
1.550425E-6	-56.025815
1.55047E-6	-63.519329
1.550515E-6	-70.302115
1.55056E-6	-76.027554
1.550605E-6	-79.558524
1.55065E-6	-81.949752
1.550695E-6	-80.995236
1.55074E-6	-75.247648
1.550785E-6	-71.356076
1.55083E-6	-69.453869
1.550875E-6	-69.058784
1.55092E-6	-68.884015
1.550965E-6	-68.979095
1.55101E-6	-68.877302
1.551055E-6	-68.823973
1.5511E-6	-69.154237
1.551145E-6	-70.365427
1.55119E-6	-73.284569
1.551235E-6	-78.910969
1.55128E-6	-82.562551
1.551325E-6	-86.597542
1.55137E-6	-87.654827
1.551415E-6	-86.38839
1.55146E-6	-86.829819
1.551505E-6	-81.954517
1.55155E-6	-74.391373
1.551595E-6	-70.766523
1.55164E-6	-69.362914
1.551685E-6	-68.900841
1.55173E-6	-68.827287
1.551775E-6	-68.877302
1.55182E-6	-68.830604
1.551865E-6	-68.890738
1.55191E-6	-69.072794
1.551955E-6	-70.530077
1.552E-6	-73.938337
1.552045E-6	-78.569852
1.55209E-6	-83.711004
1.552135E-6	-85.562678
1.55218E-6	-86.26904
1.552225E-6	-87.361273
1.55227E-6	-85.176982
1.552315E-6	-80.580912
1.55236E-6	-73.477537
1.552405E-6	-70.40291
1.55245E-6	-69.226321
1.552495E-6	-68.837244
1.55254E-6	-68.76475
1.552585E-6	-68.837244
1.55263E-6	-68.738686
1.552675E-6	-68.76475
1.55272E-6	-69.295927
1.552765E-6	-70.925349
1.55281E-6	-74.528409
1.552855E-6	-79.400581
1.5529E-6	-83.586251
1.552945E-6	-85.73977
1.55299E-6	-85.456125
1.553035E-6	-84.80172
1.55308E-6	-88.598063
1.553125E-6	-79.321855
1.55317E-6	-72.808345
1.553215E-6	-69.943906
1.55326E-6	-68.938091
1.553305E-6	-68.632794
1.55335E-6	-68.671002
1.553395E-6	-68.635966
1.55344E-6	-68.560489
1.553485E-6	-68.648673
1.55353E-6	-69.197344
1.553575E-6	-71.123827
1.55362E-6	-75.158426
1.553665E-6	-79.838026
1.55371E-6	-83.694704
1.553755E-6	-87.139929
1.5538E-6	-86.734593
1.553845E-6	-85.247648
1.55389E-6	-85.893915
1.553935E-6	-78.582368
1.55398E-6	-72.217764
1.554025E-6	-69.714287
1.55407E-6	-68.787685
1.554115E-6	-68.616973
1.55416E-6	-68.53252
1.554205E-6	-68.53872
1.55425E-6	-68.53252
1.554295E-6	-68.610661
1.55434E-6	-69.222688
1.554385E-6	-71.314143
1.55443E-6	-75.777385
1.554475E-6	-80.678308
1.55452E-6	-86.285627
1.554565E-6	-87.205612
1.55461E-6	-87.604503
1.554655E-6	-87.870138
1.5547E-6	-85.382014
1.554745E-6	-76.619421
1.55479E-6	-71.660883
1.554835E-6	-69.430951
1.55488E-6	-68.616973
1.554925E-6	-68.425432
1.55497E-6	-68.353498
1.555015E-6	-68.416375
1.55506E-6	-68.383326
1.555105E-6	-68.51089
1.55515E-6	-69.237237
1.555195E-6	-71.45269
1.55524E-6	-76.313413
1.555285E-6	-80.876185
1.55533E-6	-85.938006
1.555375E-6	-84.654662
1.55542E-6	-86.714166
1.555465E-6	-84.748256
1.55551E-6	-86.26904
1.555555E-6	-76.062494
1.5556E-6	-71.276689
1.555645E-6	-69.182927
1.55569E-6	-68.507809
1.555735E-6	-68.365404
1.55578E-6	-68.326827
1.555825E-6	-68.37137
1.55587E-6	-68.356471
1.555915E-6	-68.53252
1.55596E-6	-69.147094
1.556005E-6	-71.788141
1.55605E-6	-76.871882
1.556095E-6	-80.863451
1.55614E-6	-84.345064
1.556185E-6	-85.793842
1.55623E-6	-87.117508
1.556275E-6	-84.345064
1.55632E-6	-83.185778
1.556365E-6	-76.080069
1.55641E-6	-71.132274
1.556455E-6	-69.136402
1.5565E-6	-68.544928
1.556545E-6	-68.265224
1.55659E-6	-68.273971
1.556635E-6	-68.27689
1.55668E-6	-68.344589
1.556725E-6	-68.434508
1.55677E-6	-69.303319
1.556815E-6	-71.629801
1.55686E-6	-76.593576
1.556905E-6	-80.86504
1.55695E-6	-83.448616
1.556995E-6	-88.213108
1.55704E-6	-88.480176
1.557085E-6	-85.989443
1.55713E-6	-84.458744
1.557175E-6	-75.025175
1.55722E-6	-71.039701
1.557265E-6	-69.072794
1.55731E-6	-68.422411
1.557355E-6	-68.317973
1.5574E-6	-68.341624
1.557445E-6	-68.300318
1.55749E-6	-68.347557
1.557535E-6	-68.50473
1.55758E-6	-69.393022
1.557625E-6	-71.933453
1.55767E-6	-76.38839
1.557715E-6	-80.786257
1.55776E-6	-87.18285
1.557805E-6	-85.934598
1.55785E-6	-87.639669
1.557895E-6	-87.004927
1.55794E-6	-83.73865
1.557985E-6	-76.006725
1.55803E-6	-71.196438
1.558075E-6	-69.118639
1.55812E-6	-68.517059
1.558165E-6	-68.401322
1.55821E-6	-68.368386
1.558255E-6	-68.380334
1.5583E-6	-68.353498
1.558345E-6	-68.526329
1.55839E-6	-69.480761
1.558435E-6	-72.073982
1.55848E-6	-76.959405
1.558525E-6	-81.780282
1.55857E-6	-86.35074
1.558615E-6	-85.991168
1.55866E-6	-86.641411
1.558705E-6	-85.734887
1.55875E-6	-83.964226
1.558795E-6	-75.55799
1.55884E-6	-71.202162
1.558885E-6	-69.168559
1.55893E-6	-68.623295
1.558975E-6	-68.513973
1.55902E-6	-68.529423
1.559065E-6	-68.53252
1.55911E-6	-68.572978
1.559155E-6	-68.680607
1.5592E-6	-69.597934
1.559245E-6	-72.170976
1.55929E-6	-77.384992
1.559335E-6	-81.365582
1.55938E-6	-87.408842
1.559425E-6	-88.01893
1.55947E-6	-86.73869
1.559515E-6	-87.050931
1.55956E-6	-84.55312
1.559605E-6	-75.628839
1.55965E-6	-71.472151
1.559695E-6	-69.404366
1.55974E-6	-68.840568
1.559785E-6	-68.667805
1.55983E-6	-68.748442
1.559875E-6	-68.768019
1.55992E-6	-68.817353
1.559965E-6	-68.955129
1.56001E-6	-69.913998
1.560055E-6	-72.450404
1.5601E-6	-77.780644
1.560145E-6	-81.480083
1.56019E-6	-86.031036
1.560235E-6	-87.423214
1.56028E-6	-85.427238
1.560325E-6	-87.251497
1.56037E-6	-83.797598
1.560415E-6	-76.449318
1.56046E-6	-71.88224
1.560505E-6	-69.788107
1.56055E-6	-69.193735
1.560595E-6	-69.0309
1.56064E-6	-69.104481
1.560685E-6	-69.048306
1.56073E-6	-69.097419
1.560775E-6	-69.273825
1.56082E-6	-70.153377
1.560865E-6	-72.509597
1.56091E-6	-77.124222
1.560955E-6	-80.969643
1.561E-6	-87.244583
1.561045E-6	-85.808707
1.56109E-6	-87.780644
1.561135E-6	-88.51089
1.56118E-6	-85.202808
1.561225E-6	-77.304871
1.56127E-6	-72.433639
1.561315E-6	-70.163286
1.56136E-6	-69.633711
1.561405E-6	-69.461536
1.56145E-6	-69.527251
1.561495E-6	-69.434763
1.56154E-6	-69.461536
1.561585E-6	-69.558524
1.56163E-6	-70.367317
1.561675E-6	-72.734358
1.56172E-6	-77.604503
1.561765E-6	-81.526124
1.56181E-6	-86.848697
1.561855E-6	-87.690404
1.5619E-6	-87.382615
1.561945E-6	-86.677636
1.56199E-6	-86.140364
1.562035E-6	-79.366666
1.56208E-6	-73.098926
1.562125E-6	-70.772227
1.56217E-6	-70.12155
1.562215E-6	-69.918258
1.56226E-6	-69.905491
1.562305E-6	-69.943906
1.56235E-6	-70.064315
1.562395E-6	-70.058149
1.56244E-6	-70.702746
1.562485E-6	-72.781894
1.56253E-6	-76.794383
1.562575E-6	-82.211255
1.56262E-6	-88.632794
1.562665E-6	-85.665502
1.56271E-6	-85.514483
1.562755E-6	-88.300318
1.5628E-6	-87.675121
1.562845E-6	-80.185892
1.56289E-6	-73.980486
1.562935E-6	-71.335354
1.56298E-6	-70.525663
1.563025E-6	-70.388163
1.56307E-6	-70.488082
1.563115E-6	-70.395768
1.56316E-6	-70.376307
1.563205E-6	-70.573968
1.56325E-6	-71.143561
1.563295E-6	-73.310553
1.56334E-6	-76.605486
1.563385E-6	-80.875654
1.56343E-6	-84.792545
1.563475E-6	-89.351678
