Wavelength (nm)	Power (dBm)
1.525E-6	-49.888526
1.525045E-6	-49.775716
1.52509E-6	-49.93534
1.525135E-6	-50.531549
1.52518E-6	-51.195866
1.525225E-6	-51.444808
1.52527E-6	-51.432711
1.525315E-6	-51.360826
1.52536E-6	-51.286022
1.525405E-6	-51.201589
1.52545E-6	-50.92965
1.525495E-6	-50.028321
1.52554E-6	-48.833923
1.525585E-6	-48.065971
1.52563E-6	-47.74174
1.525675E-6	-47.544873
1.52572E-6	-47.347104
1.525765E-6	-47.142177
1.52581E-6	-47.000571
1.525855E-6	-47.176045
1.5259E-6	-48.027194
1.525945E-6	-49.333014
1.52599E-6	-50.08641
1.526035E-6	-50.210894
1.52608E-6	-50.178193
1.526125E-6	-50.104167
1.52617E-6	-50.037511
1.526215E-6	-49.796387
1.52626E-6	-48.620133
1.526305E-6	-46.907958
1.52635E-6	-45.62408
1.526395E-6	-45.273898
1.52644E-6	-45.05289
1.526485E-6	-44.886515
1.52653E-6	-44.749552
1.526575E-6	-44.685211
1.52662E-6	-44.835969
1.526665E-6	-45.807053
1.52671E-6	-47.572102
1.526755E-6	-48.897471
1.5268E-6	-49.182927
1.526845E-6	-49.197344
1.52689E-6	-49.132843
1.526935E-6	-49.072794
1.52698E-6	-48.843895
1.527025E-6	-47.375489
1.52707E-6	-45.130031
1.527115E-6	-43.628106
1.52716E-6	-43.049563
1.527205E-6	-42.823295
1.52725E-6	-42.71565
1.527295E-6	-42.626483
1.52734E-6	-42.522775
1.527385E-6	-42.609818
1.52743E-6	-43.517376
1.527475E-6	-45.533075
1.52752E-6	-47.62205
1.527565E-6	-48.41336
1.52761E-6	-48.501653
1.527655E-6	-48.452718
1.5277E-6	-48.44057
1.527745E-6	-48.297383
1.52779E-6	-47.077439
1.527835E-6	-44.381833
1.52788E-6	-42.335872
1.527925E-6	-41.531682
1.52797E-6	-41.323558
1.528015E-6	-41.237822
1.52806E-6	-41.147519
1.528105E-6	-41.107543
1.52815E-6	-41.163386
1.528195E-6	-41.809828
1.52824E-6	-43.633116
1.528285E-6	-46.328305
1.52833E-6	-47.8199
1.528375E-6	-48.099486
1.52842E-6	-48.065971
1.528465E-6	-47.856861
1.52851E-6	-46.878226
1.528555E-6	-41.115958
1.5286E-6	-28.335699
1.528645E-6	-20.890556
1.52869E-6	-17.801536
1.528735E-6	-16.821455
1.52878E-6	-16.550186
1.528825E-6	-16.434006
1.52887E-6	-16.332036
1.528915E-6	-16.474316
1.52896E-6	-17.9588
1.529005E-6	-22.038421
1.52905E-6	-30.739149
1.529095E-6	-40.289098
1.52914E-6	-45.723516
1.529185E-6	-47.408842
1.52923E-6	-47.726276
1.529275E-6	-47.377863
1.52932E-6	-45.117314
1.529365E-6	-32.360482
1.52941E-6	-22.727842
1.529455E-6	-18.722475
1.5295E-6	-17.16925
1.529545E-6	-16.823545
1.52959E-6	-16.714166
1.529635E-6	-16.641411
1.52968E-6	-16.665527
1.529725E-6	-17.539941
1.52977E-6	-20.604308
1.529815E-6	-27.672579
1.52986E-6	-38.175853
1.529905E-6	-44.616777
1.52995E-6	-47.164726
1.529995E-6	-47.736579
1.53004E-6	-47.604503
1.530085E-6	-46.373291
1.53013E-6	-37.2262
1.530175E-6	-25.033471
1.53022E-6	-19.812995
1.530265E-6	-17.614521
1.53031E-6	-17.039933
1.530355E-6	-16.903698
1.5304E-6	-16.848697
1.530445E-6	-16.817279
1.53049E-6	-17.173779
1.530535E-6	-19.197344
1.53058E-6	-24.334447
1.530625E-6	-34.397346
1.53067E-6	-42.725401
1.530715E-6	-46.599527
1.53076E-6	-47.644716
1.530805E-6	-47.75208
1.53085E-6	-47.035542
1.530895E-6	-42.421487
1.53094E-6	-28.483238
1.530985E-6	-21.173616
1.53103E-6	-18.224635
1.531075E-6	-17.349462
1.53112E-6	-17.160207
1.531165E-6	-17.135435
1.53121E-6	-17.101882
1.531255E-6	-17.265357
1.5313E-6	-18.616973
1.531345E-6	-22.487209
1.53139E-6	-30.533513
1.531435E-6	-40.454681
1.53148E-6	-45.907433
1.531525E-6	-47.520267
1.53157E-6	-47.825161
1.531615E-6	-47.500682
1.53166E-6	-45.410601
1.531705E-6	-32.931969
1.53175E-6	-23.189398
1.531795E-6	-19.023957
1.53184E-6	-17.490923
1.531885E-6	-17.16925
1.53193E-6	-17.10634
1.531975E-6	-17.115272
1.53202E-6	-17.153437
1.532065E-6	-17.840982
1.53211E-6	-20.428239
1.532155E-6	-26.597542
1.5322E-6	-37.189666
1.532245E-6	-44.219341
1.53229E-6	-47.090754
1.532335E-6	-47.809397
1.53238E-6	-47.75208
1.532425E-6	-46.66956
1.53247E-6	-39.442395
1.532515E-6	-25.717032
1.53256E-6	-20.118425
1.532605E-6	-17.830428
1.53265E-6	-17.269987
1.532695E-6	-17.173779
1.53274E-6	-17.178312
1.532785E-6	-17.251497
1.53283E-6	-17.619539
1.532875E-6	-19.442395
1.53292E-6	-24.058285
1.532965E-6	-33.338566
1.53301E-6	-42.227182
1.533055E-6	-46.538427
1.5331E-6	-47.785858
1.533145E-6	-47.94525
1.53319E-6	-47.476325
1.533235E-6	-44.633153
1.53328E-6	-31.221106
1.533325E-6	-22.299584
1.53337E-6	-18.626459
1.533415E-6	-17.373117
1.53346E-6	-17.187393
1.533505E-6	-17.205612
1.53355E-6	-17.276942
1.533595E-6	-17.447275
1.53364E-6	-18.425432
1.533685E-6	-21.619069
1.53373E-6	-28.827287
1.533775E-6	-39.292235
1.53382E-6	-45.272436
1.533865E-6	-47.557229
1.53391E-6	-48.065971
1.533955E-6	-47.891466
1.534E-6	-46.470461
1.534045E-6	-37.128704
1.53409E-6	-24.8096
1.534135E-6	-19.621752
1.53418E-6	-17.572102
1.534225E-6	-17.153437
1.53427E-6	-17.153437
1.534315E-6	-17.230789
1.53436E-6	-17.340036
1.534405E-6	-17.835702
1.53445E-6	-19.93962
1.534495E-6	-24.913356
1.53454E-6	-34.672456
1.534585E-6	-43.072412
1.53463E-6	-47.000571
1.534675E-6	-48.074325
1.53472E-6	-48.175853
1.534765E-6	-47.522722
1.53481E-6	-43.816381
1.534855E-6	-29.503944
1.5349E-6	-21.425469
1.534945E-6	-18.155925
1.53499E-6	-17.164726
1.535035E-6	-17.068585
1.53508E-6	-17.151183
1.535125E-6	-17.251497
1.53517E-6	-17.515363
1.535215E-6	-18.771291
1.53526E-6	-22.331412
1.535305E-6	-29.913998
1.53535E-6	-40.151578
1.535395E-6	-46.095948
1.53544E-6	-47.972393
1.535485E-6	-48.368386
1.53553E-6	-48.113527
1.535575E-6	-46.407338
1.53562E-6	-36.199698
1.535665E-6	-24.468455
1.53571E-6	-19.321855
1.535755E-6	-17.316561
1.5358E-6	-16.942188
1.535845E-6	-16.965879
1.53589E-6	-17.042131
1.535935E-6	-17.16925
1.53598E-6	-17.721133
1.536025E-6	-19.965395
1.53607E-6	-25.553308
1.536115E-6	-35.726762
1.53616E-6	-43.820566
1.536205E-6	-47.396901
1.53625E-6	-48.353498
1.536295E-6	-48.422411
1.53634E-6	-47.634627
1.536385E-6	-43.427529
1.53643E-6	-29.197344
1.536475E-6	-21.21938
1.53652E-6	-17.9588
1.536565E-6	-17.015836
1.53661E-6	-16.912222
1.536655E-6	-16.955095
1.5367E-6	-17.004927
1.536745E-6	-17.180581
1.53679E-6	-18.452718
1.536835E-6	-22.068385
1.53688E-6	-29.871628
1.536925E-6	-40.049794
1.53697E-6	-46.036263
1.537015E-6	-48.068754
1.53706E-6	-48.520147
1.537105E-6	-48.256494
1.53715E-6	-46.565914
1.537195E-6	-36.346993
1.53724E-6	-24.289903
1.537285E-6	-19.251836
1.53733E-6	-17.235382
1.537375E-6	-16.806857
1.53742E-6	-16.794383
1.537465E-6	-16.815193
1.53751E-6	-16.842395
1.537555E-6	-17.321246
1.5376E-6	-19.542859
1.537645E-6	-25.007254
1.53769E-6	-35.187007
1.537735E-6	-43.263341
1.53778E-6	-47.307206
1.537825E-6	-48.389316
1.53787E-6	-48.492436
1.537915E-6	-47.81202
1.53796E-6	-44.15895
1.538005E-6	-30.072256
1.53805E-6	-21.389438
1.538095E-6	-17.899492
1.53814E-6	-16.777807
1.538185E-6	-16.581699
1.53823E-6	-16.569855
1.538275E-6	-16.548224
1.53832E-6	-16.661499
1.538365E-6	-17.723704
1.53841E-6	-21.199872
1.538455E-6	-28.944898
1.5385E-6	-39.515582
1.538545E-6	-45.534628
1.53859E-6	-47.910215
1.538635E-6	-48.480176
1.53868E-6	-48.291518
1.538725E-6	-46.865546
1.53877E-6	-38.419392
1.538815E-6	-24.958011
1.53886E-6	-19.54677
1.538905E-6	-17.349462
1.53895E-6	-16.819367
1.538995E-6	-16.724367
1.53904E-6	-16.695862
1.539085E-6	-16.683703
1.53913E-6	-17.035542
1.539175E-6	-19.0309
1.53922E-6	-24.100504
1.539265E-6	-33.957739
1.53931E-6	-42.638426
1.539355E-6	-46.994045
1.5394E-6	-48.250684
1.539445E-6	-48.425432
1.53949E-6	-47.804155
1.539535E-6	-44.638205
1.53958E-6	-30.556654
1.539625E-6	-21.852199
1.53967E-6	-18.218867
1.539715E-6	-16.952941
1.53976E-6	-16.706021
1.539805E-6	-16.647427
1.53985E-6	-16.597542
1.539895E-6	-16.643415
1.53994E-6	-17.539941
1.539985E-6	-20.645431
1.54003E-6	-28.027194
1.540075E-6	-38.76475
1.54012E-6	-45.007254
1.540165E-6	-47.662426
1.54021E-6	-48.326827
1.540255E-6	-48.224635
1.5403E-6	-47.055338
1.540345E-6	-40.031382
1.54039E-6	-25.941416
1.540435E-6	-20
1.54048E-6	-17.508016
1.540525E-6	-16.790233
1.54057E-6	-16.663512
1.540615E-6	-16.619421
1.54066E-6	-16.571827
1.540705E-6	-16.840297
1.54075E-6	-18.535619
1.540795E-6	-23.045183
1.54084E-6	-32.171692
1.540885E-6	-41.525507
1.54093E-6	-46.456994
1.540975E-6	-47.996968
1.54102E-6	-48.262312
1.541065E-6	-47.891466
1.54111E-6	-45.710557
1.541155E-6	-33.317073
1.5412E-6	-23.166827
1.541245E-6	-18.880657
1.54129E-6	-17.194216
1.541335E-6	-16.821455
1.54138E-6	-16.722325
1.541425E-6	-16.691805
1.54147E-6	-16.710091
1.541515E-6	-17.396901
1.54156E-6	-20.036635
1.541605E-6	-26.199698
1.54165E-6	-36.659486
1.541695E-6	-44.004444
1.54174E-6	-47.276942
1.541785E-6	-48.079904
1.54183E-6	-48.077114
1.541875E-6	-47.230789
1.54192E-6	-42.594794
1.541965E-6	-28.153086
1.54201E-6	-20.717066
1.542055E-6	-17.754669
1.5421E-6	-16.880343
1.542145E-6	-16.697892
1.54219E-6	-16.649435
1.542235E-6	-16.593576
1.54228E-6	-16.712128
1.542325E-6	-17.956087
1.54237E-6	-21.554607
1.542415E-6	-29.586073
1.54246E-6	-39.480761
1.542505E-6	-45.550189
1.54255E-6	-47.624563
1.542595E-6	-48.046539
1.54264E-6	-47.835702
1.542685E-6	-46.378947
1.54273E-6	-36.765416
1.542775E-6	-24.575481
1.54282E-6	-19.480761
1.542865E-6	-17.413627
1.54291E-6	-16.905828
1.542955E-6	-16.808939
1.543E-6	-16.777807
1.543045E-6	-16.763355
1.54309E-6	-17.061956
1.543135E-6	-18.965384
1.54318E-6	-23.717133
1.543225E-6	-33.472703
1.54327E-6	-42.145278
1.543315E-6	-46.528652
1.54336E-6	-47.767637
1.543405E-6	-47.964232
1.54345E-6	-47.461776
1.543495E-6	-44.730149
1.54354E-6	-31.394224
1.543585E-6	-22.259212
1.54363E-6	-18.480176
1.543675E-6	-17.110804
1.54372E-6	-16.834007
1.543765E-6	-16.78816
1.54381E-6	-16.759234
1.543855E-6	-16.798537
1.5439E-6	-17.527635
1.543945E-6	-20.209983
1.54399E-6	-26.643415
1.544035E-6	-37.176045
1.54408E-6	-44.133002
1.544125E-6	-47.13319
1.54417E-6	-47.870138
1.544215E-6	-47.862167
1.54426E-6	-47.013652
1.544305E-6	-41.875546
1.54435E-6	-27.454519
1.544395E-6	-20.73812
1.54444E-6	-17.929045
1.544485E-6	-17.10411
1.54453E-6	-16.972363
1.544575E-6	-16.92932
1.54462E-6	-16.903698
1.544665E-6	-17.037737
1.54471E-6	-18.195874
1.544755E-6	-21.868862
1.5448E-6	-29.854795
1.544845E-6	-39.863203
1.54489E-6	-45.689581
1.544935E-6	-47.498241
1.54498E-6	-47.896815
1.545025E-6	-47.677665
1.54507E-6	-46.176227
1.545115E-6	-35.99462
1.54516E-6	-24.355707
1.545205E-6	-19.434763
1.54525E-6	-17.46662
1.545295E-6	-17.022395
1.54534E-6	-16.940041
1.545385E-6	-16.914356
1.54543E-6	-16.92504
1.545475E-6	-17.279262
1.54552E-6	-19.197344
1.545565E-6	-24.045038
1.54561E-6	-33.511523
1.545655E-6	-42.252641
1.5457E-6	-46.493644
1.545745E-6	-47.695511
1.54579E-6	-47.878124
1.545835E-6	-47.476325
1.54588E-6	-45.162701
1.545925E-6	-32.575105
1.54597E-6	-22.674454
1.546015E-6	-18.645493
1.54606E-6	-17.258422
1.546105E-6	-16.998395
1.54615E-6	-16.942188
1.546195E-6	-16.93575
1.54624E-6	-16.965879
1.546285E-6	-17.559704
1.54633E-6	-20.008259
1.546375E-6	-26.099485
1.54642E-6	-36.315272
1.546465E-6	-43.87428
1.54651E-6	-46.991872
1.546555E-6	-47.806775
1.5466E-6	-47.840982
1.546645E-6	-47.137681
1.54669E-6	-42.658405
1.546735E-6	-28.754958
1.54678E-6	-21.132274
1.546825E-6	-18.082696
1.54687E-6	-17.13319
1.546915E-6	-16.957249
1.54696E-6	-16.912222
1.547005E-6	-16.899443
1.54705E-6	-17.024583
1.547095E-6	-18.057633
1.54714E-6	-21.341856
1.547185E-6	-28.576105
1.54723E-6	-39.048306
1.547275E-6	-45.089186
1.54732E-6	-47.340036
1.547365E-6	-47.851562
1.54741E-6	-47.749493
1.547455E-6	-46.609463
1.5475E-6	-39.542859
1.547545E-6	-25.877075
1.54759E-6	-20.04672
1.547635E-6	-17.642191
1.54768E-6	-17.044329
1.547725E-6	-16.937895
1.54777E-6	-16.920763
1.547815E-6	-16.918626
1.54786E-6	-17.108572
1.547905E-6	-18.51089
1.54795E-6	-22.499547
1.547995E-6	-31.259823
1.54804E-6	-40.778457
1.548085E-6	-45.887171
1.54813E-6	-47.549811
1.548175E-6	-47.859513
1.54822E-6	-47.604503
1.548265E-6	-45.885487
1.54831E-6	-34.960732
1.548355E-6	-23.95882
1.5484E-6	-19.266483
1.548445E-6	-17.430418
1.54849E-6	-16.983191
1.548535E-6	-16.914356
1.54858E-6	-16.905828
1.548625E-6	-16.912222
1.54867E-6	-17.286231
1.548715E-6	-19.248181
1.54876E-6	-24.300412
1.548805E-6	-33.893398
1.54885E-6	-42.416181
1.548895E-6	-46.542343
1.54894E-6	-47.695511
1.548985E-6	-47.840982
1.54903E-6	-47.392133
1.549075E-6	-44.897232
1.54912E-6	-32.4071
1.549165E-6	-22.733543
1.54921E-6	-18.725712
1.549255E-6	-17.235382
1.5493E-6	-16.959405
1.549345E-6	-16.920763
1.54939E-6	-16.914356
1.549435E-6	-16.955095
1.54948E-6	-17.577071
1.549525E-6	-19.965395
1.54957E-6	-25.751184
1.549615E-6	-35.968795
1.54966E-6	-43.475603
1.549705E-6	-46.863437
1.54975E-6	-47.726276
1.549795E-6	-47.788467
1.54984E-6	-47.144427
1.549885E-6	-43.586251
1.54993E-6	-29.867413
1.549975E-6	-21.615917
1.55002E-6	-18.273971
1.550065E-6	-17.21475
1.55011E-6	-17.018021
1.550155E-6	-16.9897
1.5502E-6	-16.976691
1.550245E-6	-17.022395
1.55029E-6	-17.731424
1.550335E-6	-20.47256
1.55038E-6	-27.028963
1.550425E-6	-37.6675
1.55047E-6	-44.361631
1.550515E-6	-47.088532
1.55056E-6	-47.721133
1.550605E-6	-47.695511
1.55065E-6	-46.815193
1.550695E-6	-41.605848
1.55074E-6	-27.349462
1.550785E-6	-20.744301
1.55083E-6	-17.964232
1.550875E-6	-17.146678
1.55092E-6	-17.002748
1.550965E-6	-16.946486
1.55101E-6	-16.93575
1.551055E-6	-17.037737
1.5511E-6	-18.06041
1.551145E-6	-21.395422
1.55119E-6	-29.100949
1.551235E-6	-39.359166
1.55128E-6	-45.152732
1.551325E-6	-47.258422
1.55137E-6	-47.708303
1.551415E-6	-47.627077
1.55146E-6	-46.563945
1.551505E-6	-39.875846
1.55155E-6	-26.263525
1.551595E-6	-20.244763
1.55164E-6	-17.798919
1.551685E-6	-17.119745
1.55173E-6	-17.018021
1.551775E-6	-16.991872
1.55182E-6	-16.96372
1.551865E-6	-17.146678
1.55191E-6	-18.477117
1.551955E-6	-22.35077
1.552E-6	-30.443603
1.552045E-6	-40.10061
1.55209E-6	-45.619325
1.552135E-6	-47.340036
1.55218E-6	-47.690404
1.552225E-6	-47.483618
1.55227E-6	-46.06074
1.552315E-6	-36.324577
1.55236E-6	-24.624327
1.552405E-6	-19.601894
1.55245E-6	-17.539941
1.552495E-6	-17.086311
1.55254E-6	-17.011469
1.552585E-6	-16.978856
1.55263E-6	-16.959405
1.552675E-6	-17.2262
1.55272E-6	-18.910969
1.552765E-6	-23.455347
1.55281E-6	-32.328441
1.552855E-6	-41.495376
1.5529E-6	-46.08712
1.552945E-6	-47.425614
1.55299E-6	-47.634627
1.553035E-6	-47.335331
1.55308E-6	-45.491353
1.553125E-6	-34.312118
1.55317E-6	-23.464981
1.553215E-6	-19.010104
1.55326E-6	-17.307206
1.553305E-6	-16.944337
1.55335E-6	-16.869769
1.553395E-6	-16.831912
1.55344E-6	-16.838199
1.553485E-6	-17.210179
1.55353E-6	-19.168559
1.553575E-6	-24.079343
1.55362E-6	-33.502758
1.553665E-6	-42.04259
1.55371E-6	-46.214204
1.553755E-6	-47.428016
1.5538E-6	-47.594508
1.553845E-6	-47.2262
1.55389E-6	-45.018273
1.553935E-6	-32.768728
1.55398E-6	-22.85335
1.554025E-6	-18.847224
1.55407E-6	-17.389752
1.554115E-6	-17.077439
1.55416E-6	-16.985359
1.554205E-6	-16.940041
1.55425E-6	-16.957249
1.554295E-6	-17.373117
1.55434E-6	-19.473061
1.554385E-6	-24.804345
1.55443E-6	-34.61175
1.554475E-6	-42.896287
1.55452E-6	-46.455074
1.554565E-6	-47.442452
1.55461E-6	-47.554755
1.554655E-6	-47.066374
1.5547E-6	-44.380642
1.554745E-6	-31.185583
1.55479E-6	-22.233714
1.554835E-6	-18.645493
1.55488E-6	-17.387371
1.554925E-6	-17.088532
1.55497E-6	-17.015836
1.555015E-6	-17.000571
1.55506E-6	-17.004927
1.555105E-6	-17.515363
1.55515E-6	-19.829667
1.555195E-6	-25.503673
1.55524E-6	-35.641556
1.555285E-6	-43.274404
1.55533E-6	-46.563945
1.555375E-6	-47.432823
1.55542E-6	-47.486051
1.555465E-6	-46.88458
1.55551E-6	-43.460161
1.555555E-6	-29.75925
1.5556E-6	-21.699248
1.555645E-6	-18.33866
1.55569E-6	-17.297871
1.555735E-6	-17.048729
1.55578E-6	-16.987529
1.555825E-6	-16.9897
1.55587E-6	-17.022395
1.555915E-6	-17.544873
1.55596E-6	-19.995659
1.556005E-6	-26.008457
1.55605E-6	-36.309698
1.556095E-6	-43.587242
1.55614E-6	-46.645421
1.556185E-6	-47.420815
1.55623E-6	-47.452103
1.556275E-6	-46.873996
1.55632E-6	-43.347005
1.556365E-6	-29.649707
1.55641E-6	-21.624747
1.556455E-6	-18.294449
1.5565E-6	-17.217038
1.556545E-6	-16.968039
1.55659E-6	-16.92932
1.556635E-6	-16.940041
1.55668E-6	-16.983191
1.556725E-6	-17.652297
1.55677E-6	-20.327329
1.556815E-6	-26.689778
1.55686E-6	-36.944337
1.556905E-6	-43.831046
1.55695E-6	-46.732546
1.556995E-6	-47.420815
1.55704E-6	-47.449688
1.557085E-6	-46.804776
1.55713E-6	-43.184874
1.557175E-6	-29.273825
1.55722E-6	-21.336536
1.557265E-6	-18.144578
1.55731E-6	-17.077439
1.557355E-6	-16.852903
1.5574E-6	-16.831912
1.557445E-6	-16.836102
1.55749E-6	-16.90157
1.557535E-6	-17.62205
1.55758E-6	-20.379149
1.557625E-6	-26.867657
1.55767E-6	-37.286231
1.557715E-6	-44.082678
1.55776E-6	-46.767479
1.557805E-6	-47.430418
1.55785E-6	-47.452103
1.557895E-6	-46.804776
1.55794E-6	-42.911544
1.557985E-6	-29.347939
1.55803E-6	-21.500281
1.558075E-6	-18.210231
1.55812E-6	-17.092978
1.558165E-6	-16.871882
1.55821E-6	-16.85922
1.558255E-6	-16.893067
1.5583E-6	-16.955095
1.558345E-6	-17.710866
1.55839E-6	-20.558629
1.558435E-6	-27.139929
1.55848E-6	-37.574586
1.558525E-6	-44.097156
1.55857E-6	-46.848697
1.558615E-6	-47.493361
1.55866E-6	-47.500682
1.558705E-6	-46.863437
1.55875E-6	-42.876029
1.558795E-6	-29.072794
1.55884E-6	-21.410419
1.558885E-6	-18.16161
1.55893E-6	-17.153437
1.558975E-6	-16.983191
1.55902E-6	-16.978856
1.559065E-6	-16.996219
1.55911E-6	-17.070797
1.559155E-6	-17.804155
1.5592E-6	-20.553693
1.559245E-6	-26.985359
1.55929E-6	-37.401673
1.559335E-6	-44.195312
1.55938E-6	-46.903698
1.559425E-6	-47.564659
1.55947E-6	-47.589518
1.559515E-6	-46.916491
1.55956E-6	-42.740067
1.559605E-6	-28.894103
1.55965E-6	-21.187866
1.559695E-6	-18.105097
1.55974E-6	-17.151183
1.559785E-6	-17.011469
1.55983E-6	-17.011469
1.559875E-6	-17.064165
1.55992E-6	-17.160207
1.559965E-6	-17.883456
1.56001E-6	-20.662091
1.560055E-6	-27.221617
1.5601E-6	-37.444863
1.560145E-6	-44.271284
1.56019E-6	-47.020208
1.560235E-6	-47.700623
1.56028E-6	-47.736579
1.560325E-6	-47.110804
1.56037E-6	-43.49984
1.560415E-6	-29.742846
1.56046E-6	-21.444808
1.560505E-6	-18.088285
1.56055E-6	-17.039933
1.560595E-6	-16.865546
1.56064E-6	-16.88458
1.560685E-6	-16.931463
1.56073E-6	-17.024583
1.560775E-6	-17.796304
1.56082E-6	-20.605806
1.560865E-6	-27.108572
1.56091E-6	-37.708303
1.560955E-6	-44.350973
1.561E-6	-47.097427
1.561045E-6	-47.851562
1.56109E-6	-47.886124
1.561135E-6	-47.242281
1.56118E-6	-43.536943
1.561225E-6	-29.788107
1.56127E-6	-21.436941
1.561315E-6	-18.054857
1.56136E-6	-16.998395
1.561405E-6	-16.842395
1.56145E-6	-16.852903
1.561495E-6	-16.905828
1.56154E-6	-17.013652
1.561585E-6	-17.682756
1.56163E-6	-20.269646
1.561675E-6	-26.456994
1.56172E-6	-36.679657
1.561765E-6	-43.956659
1.56181E-6	-47.142177
1.561855E-6	-47.988761
1.5619E-6	-48.088285
1.561945E-6	-47.56962
1.56199E-6	-44.722412
1.562035E-6	-31.503963
1.56208E-6	-22.14955
1.562125E-6	-18.315025
1.56217E-6	-17.031155
1.562215E-6	-16.823545
1.56226E-6	-16.848697
1.562305E-6	-16.912222
1.56235E-6	-17.015836
1.562395E-6	-17.50557
1.56244E-6	-19.718356
1.562485E-6	-25.0515
1.56253E-6	-34.76774
1.562575E-6	-43.025963
1.56262E-6	-46.972363
1.562665E-6	-48.116341
1.56271E-6	-48.279812
1.562755E-6	-47.825161
1.5628E-6	-45.368539
1.562845E-6	-32.810004
1.56289E-6	-22.651202
1.562935E-6	-18.449678
1.56298E-6	-16.940041
1.563025E-6	-16.68168
1.56307E-6	-16.693833
1.563115E-6	-16.78816
1.56316E-6	-16.888822
1.563205E-6	-17.330631
1.56325E-6	-19.393022
1.563295E-6	-24.398542
1.56334E-6	-34.523483
1.563385E-6	-42.731913
1.56343E-6	-46.996219
1.563475E-6	-48.27689
