Wavelength (nm)	Power (dBm)
1.525E-6	-120
1.525045E-6	-88.155925
1.52509E-6	-87.21475
1.525135E-6	-86.560009
1.52518E-6	-93.661277
1.525225E-6	-97.079656
1.52527E-6	-90.365427
1.525315E-6	-120
1.52536E-6	-91.297132
1.525405E-6	-91.5422
1.52545E-6	-90.117087
1.525495E-6	-88.699881
1.52554E-6	-90.72527
1.525585E-6	-86.447401
1.52563E-6	-83.705904
1.525675E-6	-86.055483
1.52572E-6	-86.968039
1.525765E-6	-83.662287
1.52581E-6	-82.873503
1.525855E-6	-85.586191
1.5259E-6	-84.736607
1.525945E-6	-90.834934
1.52599E-6	-87.846268
1.526035E-6	-120
1.52608E-6	-120
1.526125E-6	-120
1.52617E-6	-120
1.526215E-6	-120
1.52626E-6	-90.787298
1.526305E-6	-88.601209
1.52635E-6	-84.424928
1.526395E-6	-83.679478
1.52644E-6	-84.450265
1.526485E-6	-84.501388
1.52653E-6	-84.06271
1.526575E-6	-84.356891
1.52662E-6	-83.329208
1.526665E-6	-86.031036
1.52671E-6	-84.717262
1.526755E-6	-120
1.5268E-6	-120
1.526845E-6	-89.344203
1.52689E-6	-93.2468
1.526935E-6	-102.025247
1.52698E-6	-90.294207
1.527025E-6	-88.648673
1.52707E-6	-87.185121
1.527115E-6	-85.388017
1.52716E-6	-84.107208
1.527205E-6	-83.558569
1.52725E-6	-82.997291
1.527295E-6	-82.370215
1.52734E-6	-82.332898
1.527385E-6	-82.932822
1.52743E-6	-82.992098
1.527475E-6	-86.914356
1.52752E-6	-89.069287
1.527565E-6	-120
1.52761E-6	-120
1.527655E-6	-120
1.5277E-6	-120
1.527745E-6	-85.025175
1.52779E-6	-88.860566
1.527835E-6	-89.266483
1.52788E-6	-84.023048
1.527925E-6	-83.193926
1.52797E-6	-82.553159
1.528015E-6	-81.479472
1.52806E-6	-82.676867
1.528105E-6	-81.099145
1.52815E-6	-81.565181
1.528195E-6	-82.922595
1.52824E-6	-83.122927
1.528285E-6	-88.431481
1.52833E-6	-94.244658
1.528375E-6	-94.17255
1.52842E-6	-91.331812
1.528465E-6	-90.902835
1.52851E-6	-89.037854
1.528555E-6	-120
1.5286E-6	-90.164639
1.528645E-6	-82.922595
1.52869E-6	-81.602078
1.528735E-6	-81.529211
1.52878E-6	-80.587371
1.528825E-6	-80.863451
1.52887E-6	-81.650709
1.528915E-6	-80.805558
1.52896E-6	-80.554186
1.529005E-6	-82.522775
1.52905E-6	-84.799097
1.529095E-6	-96.665527
1.52914E-6	-90.503661
1.529185E-6	-94.55312
1.52923E-6	-120
1.529275E-6	-92.487979
1.52932E-6	-120
1.529365E-6	-91.5422
1.52941E-6	-84.690323
1.529455E-6	-81.868195
1.5295E-6	-80.523703
1.529545E-6	-80.840201
1.52959E-6	-80.730919
1.529635E-6	-80.64896
1.52968E-6	-80.461437
1.529725E-6	-80.282604
1.52977E-6	-82.012803
1.529815E-6	-83.541849
1.52986E-6	-87.736579
1.529905E-6	-91.435732
1.52995E-6	-92.458811
1.529995E-6	-91.92465
1.53004E-6	-120
1.530085E-6	-95.145625
1.53013E-6	-92.217764
1.530175E-6	-86.14215
1.53022E-6	-82.839131
1.530265E-6	-80.315638
1.53031E-6	-80.664115
1.530355E-6	-80.432555
1.5304E-6	-80.413406
1.530445E-6	-79.892761
1.53049E-6	-79.913998
1.530535E-6	-80.773783
1.53058E-6	-81.969528
1.530625E-6	-84.687766
1.53067E-6	-90.541377
1.530715E-6	-96.657474
1.53076E-6	-120
1.530805E-6	-96.615435
1.53085E-6	-120
1.530895E-6	-90.693566
1.53094E-6	-87.302536
1.530985E-6	-83.26058
1.53103E-6	-80.7053
1.531075E-6	-80.02046
1.53112E-6	-80.459988
1.531165E-6	-79.601894
1.53121E-6	-79.702105
1.531255E-6	-80.304443
1.5313E-6	-80.382942
1.531345E-6	-81.865525
1.53139E-6	-82.919192
1.531435E-6	-86.495581
1.53148E-6	-92.001772
1.531525E-6	-119.792245
1.53157E-6	-120
1.531615E-6	-120
1.53166E-6	-95.015516
1.531705E-6	-87.265357
1.53175E-6	-84.700566
1.531795E-6	-82.417696
1.53184E-6	-80.258569
1.531885E-6	-80.339052
1.53193E-6	-80.696624
1.531975E-6	-81.145822
1.53202E-6	-80.245682
1.532065E-6	-79.154237
1.53211E-6	-80.108172
1.532155E-6	-82.240984
1.5322E-6	-86.952941
1.532245E-6	-91.089646
1.53229E-6	-120
1.532335E-6	-91.886261
1.53238E-6	-89.629721
1.532425E-6	-120
1.53247E-6	-120
1.532515E-6	-87.785858
1.53256E-6	-83.484313
1.532605E-6	-80.587868
1.53265E-6	-80.223678
1.532695E-6	-80.398623
1.53274E-6	-80.032695
1.532785E-6	-80.037511
1.53283E-6	-80.147981
1.532875E-6	-80.2512
1.53292E-6	-82.12823
1.532965E-6	-86.771607
1.53301E-6	-93.382819
1.533055E-6	-120
1.5331E-6	-95.322439
1.533145E-6	-120
1.53319E-6	-90.17774
1.533235E-6	-90.347512
1.53328E-6	-90.139452
1.533325E-6	-84.186193
1.53337E-6	-82.090115
1.533415E-6	-80.47256
1.53346E-6	-81.04688
1.533505E-6	-80.176383
1.53355E-6	-80.919441
1.533595E-6	-80.557642
1.53364E-6	-80.417229
1.533685E-6	-81.450263
1.53373E-6	-85.415132
1.533775E-6	-89.698052
1.53382E-6	-94.284076
1.533865E-6	-92.740884
1.53391E-6	-120
1.533955E-6	-120
1.534E-6	-102.21487
1.534045E-6	-120
1.53409E-6	-88.247782
1.534135E-6	-82.816644
1.53418E-6	-83.105136
1.534225E-6	-81.229167
1.53427E-6	-80.982693
1.534315E-6	-80.724757
1.53436E-6	-81.178171
1.534405E-6	-81.848873
1.53445E-6	-81.810487
1.534495E-6	-82.829123
1.53454E-6	-86.495581
1.534585E-6	-99.3968
1.53463E-6	-92.078886
1.534675E-6	-120
1.53472E-6	-120
1.534765E-6	-120
1.53481E-6	-90.664115
1.534855E-6	-109.767475
1.5349E-6	-84.126258
1.534945E-6	-82.565686
1.53499E-6	-81.630433
1.535035E-6	-81.949752
1.53508E-6	-81.50642
1.535125E-6	-82.211978
1.53517E-6	-81.351331
1.535215E-6	-82.892059
1.53526E-6	-82.364223
1.535305E-6	-85.821963
1.53535E-6	-89.362914
1.535395E-6	-120
1.53544E-6	-94.258529
1.535485E-6	-120
1.53553E-6	-90.199966
1.535575E-6	-98.057633
1.53562E-6	-94.871822
1.535665E-6	-88.374356
1.53571E-6	-84.362817
1.535755E-6	-82.836627
1.5358E-6	-82.852512
1.535845E-6	-82.239529
1.53589E-6	-82.89375
1.535935E-6	-83.192114
1.53598E-6	-82.55707
1.536025E-6	-81.886261
1.53607E-6	-84.277094
1.536115E-6	-88.130437
1.53616E-6	-120
1.536205E-6	-91.395422
1.53625E-6	-92.868456
1.536295E-6	-96.78816
1.53634E-6	-91.498441
1.536385E-6	-120
1.53643E-6	-87.642191
1.536475E-6	-86.122543
1.53652E-6	-83.390397
1.536565E-6	-83.460161
1.53661E-6	-83.004224
1.536655E-6	-84.73144
1.5367E-6	-84.063817
1.536745E-6	-84.341522
1.53679E-6	-83.480439
1.536835E-6	-82.626483
1.53688E-6	-86.341378
1.536925E-6	-90.054189
1.53697E-6	-120
1.537015E-6	-120
1.53706E-6	-120
1.537105E-6	-91.803903
1.53715E-6	-97.126462
1.537195E-6	-93.187588
1.53724E-6	-89.154237
1.537285E-6	-85.828606
1.53733E-6	-83.349822
1.537375E-6	-83.430398
1.53742E-6	-83.033815
1.537465E-6	-83.623102
1.53751E-6	-83.820566
1.537555E-6	-84.205594
1.5376E-6	-83.524214
1.537645E-6	-84.841262
1.53769E-6	-94.205594
1.537735E-6	-87.567139
1.53778E-6	-90.573968
1.537825E-6	-120
1.53787E-6	-120
1.537915E-6	-120
1.53796E-6	-108.279812
1.538005E-6	-88.827287
1.53805E-6	-87.907532
1.538095E-6	-84.277094
1.53814E-6	-83.462088
1.538185E-6	-83.727366
1.53823E-6	-83.483344
1.538275E-6	-84.449056
1.53832E-6	-84.786004
1.538365E-6	-84.789927
1.53841E-6	-84.602968
1.538455E-6	-89.344203
1.5385E-6	-85.939711
1.538545E-6	-120
1.53859E-6	-88.965384
1.538635E-6	-120
1.53868E-6	-120
1.538725E-6	-87.582046
1.53877E-6	-88.87395
1.538815E-6	-86.813107
1.53886E-6	-83.862639
1.538905E-6	-83.910463
1.53895E-6	-83.293831
1.538995E-6	-83.428485
1.53904E-6	-84.203307
1.539085E-6	-84.302751
1.53913E-6	-84.031831
1.539175E-6	-83.84892
1.53922E-6	-88.699881
1.539265E-6	-86.055483
1.53931E-6	-88.8706
1.539355E-6	-120
1.5394E-6	-97.171514
1.539445E-6	-92.044676
1.53949E-6	-88.477117
1.539535E-6	-91.27203
1.53958E-6	-93.831046
1.539625E-6	-89.734667
1.53967E-6	-85.575202
1.539715E-6	-83.633116
1.53976E-6	-82.482591
1.539805E-6	-84.255057
1.53985E-6	-82.466468
1.539895E-6	-83.198459
1.53994E-6	-84.177093
1.539985E-6	-84.335625
1.54003E-6	-86.298572
1.540075E-6	-91.545919
1.54012E-6	-120
1.540165E-6	-105.087784
1.54021E-6	-90.593839
1.540255E-6	-120
1.5403E-6	-87.670039
1.540345E-6	-120
1.54039E-6	-87.988761
1.540435E-6	-85.875395
1.54048E-6	-83.937261
1.540525E-6	-83.799681
1.54057E-6	-82.924298
1.540615E-6	-83.549709
1.54066E-6	-83.935111
1.540705E-6	-83.639135
1.54075E-6	-83.073293
1.540795E-6	-83.437101
1.54084E-6	-85.944829
1.540885E-6	-93.41321
1.54093E-6	-93.137213
1.540975E-6	-120
1.54102E-6	-93.774751
1.541065E-6	-120
1.54111E-6	-91.478251
1.541155E-6	-91.741197
1.5412E-6	-87.026773
1.541245E-6	-85.734887
1.54129E-6	-83.81429
1.541335E-6	-83.098039
1.54138E-6	-81.671081
1.541425E-6	-82.388242
1.54147E-6	-83.432312
1.541515E-6	-82.363474
1.54156E-6	-83.94695
1.541605E-6	-85.057062
1.54165E-6	-89.722428
1.541695E-6	-92.212701
1.54174E-6	-98.771291
1.541785E-6	-92.783542
1.54183E-6	-93.748934
1.541875E-6	-120
1.54192E-6	-120
1.541965E-6	-105.389519
1.54201E-6	-87.599502
1.542055E-6	-83.064489
1.5421E-6	-83.644157
1.542145E-6	-82.653602
1.54219E-6	-82.680891
1.542235E-6	-83.43327
1.54228E-6	-82.463404
1.542325E-6	-82.348532
1.54237E-6	-83.87534
1.542415E-6	-88.480176
1.54246E-6	-92.271651
1.542505E-6	-88.443604
1.54255E-6	-120
1.542595E-6	-95.987718
1.54264E-6	-92.4071
1.542685E-6	-89.193735
1.54273E-6	-93.507625
1.542775E-6	-87.728849
1.54282E-6	-84.966179
1.542865E-6	-82.531324
1.54291E-6	-81.981163
1.542955E-6	-81.844887
1.543E-6	-83.394191
1.543045E-6	-82.819968
1.54309E-6	-82.175274
1.543135E-6	-81.677466
1.54318E-6	-84.06271
1.543225E-6	-88.195874
1.54327E-6	-88.651856
1.543315E-6	-120
1.54336E-6	-102.216317
1.543405E-6	-92.656803
1.54345E-6	-120
1.543495E-6	-120
1.54354E-6	-82.039116
1.543585E-6	-86.811023
1.54363E-6	-83.039933
1.543675E-6	-83.327339
1.54372E-6	-82.622509
1.543765E-6	-83.099812
1.54381E-6	-82.48952
1.543855E-6	-82.367967
1.5439E-6	-81.698606
1.543945E-6	-83.431355
1.54399E-6	-86.679657
1.544035E-6	-89.333014
1.54408E-6	-96.378947
1.544125E-6	-120
1.54417E-6	-120
1.544215E-6	-120
1.54426E-6	-120
1.544305E-6	-96.96372
1.54435E-6	-87.770236
1.544395E-6	-84.074902
1.54444E-6	-83.250471
1.544485E-6	-84.102737
1.54453E-6	-83.317073
1.544575E-6	-82.637629
1.54462E-6	-82.97311
1.544665E-6	-81.968844
1.54471E-6	-82.50341
1.544755E-6	-83.089185
1.5448E-6	-85.169836
1.544845E-6	-86.821455
1.54489E-6	-88.079904
1.544935E-6	-120
1.54498E-6	-90.307239
1.545025E-6	-86.972363
1.54507E-6	-84.420119
1.545115E-6	-70.802945
1.54516E-6	-55.972229
1.545205E-6	-50.297461
1.54525E-6	-47.87546
1.545295E-6	-47.290884
1.54534E-6	-47.20105
1.545385E-6	-47.187393
1.54543E-6	-47.191941
1.545475E-6	-47.532553
1.54552E-6	-49.325572
1.545565E-6	-53.951262
1.54561E-6	-62.448877
1.545655E-6	-72.218487
1.5457E-6	-79.010104
1.545745E-6	-84.789927
1.54579E-6	-88.013429
1.545835E-6	-88.093882
1.54588E-6	-93.324537
1.545925E-6	-88.613816
1.54597E-6	-84.61175
1.546015E-6	-84.662279
1.54606E-6	-83.801765
1.546105E-6	-81.978422
1.54615E-6	-82.469534
1.546195E-6	-81.890286
1.54624E-6	-81.99833
1.546285E-6	-81.522423
1.54633E-6	-82.465702
1.546375E-6	-84.975729
1.54642E-6	-95.01276
1.546465E-6	-91.274359
1.54651E-6	-120
1.546555E-6	-105.892228
1.5466E-6	-93.299398
1.546645E-6	-102.290744
1.54669E-6	-95.929492
1.546735E-6	-87.838341
1.54678E-6	-85.257837
1.546825E-6	-83.607128
1.54687E-6	-82.506502
1.546915E-6	-82.081691
1.54696E-6	-82.029403
1.547005E-6	-82.4443
1.54705E-6	-81.58578
1.547095E-6	-82.343314
1.54714E-6	-82.217764
1.547185E-6	-86.232406
1.54723E-6	-91.673634
1.547275E-6	-97.966951
1.54732E-6	-89.948195
1.547365E-6	-89.905491
1.54741E-6	-120
1.547455E-6	-92.018329
1.5475E-6	-89.554602
1.547545E-6	-87.14893
1.54759E-6	-84.55312
1.547635E-6	-82.711594
1.54768E-6	-82.171692
1.547725E-6	-81.449657
1.54777E-6	-82.813323
1.547815E-6	-82.012803
1.54786E-6	-81.560824
1.547905E-6	-81.944312
1.54795E-6	-84.55312
1.547995E-6	-87.840982
1.54804E-6	-89.125735
1.548085E-6	-95.141367
1.54813E-6	-120
1.548175E-6	-88.291518
1.54822E-6	-88.784402
1.548265E-6	-91.100823
1.54831E-6	-88.44057
1.548355E-6	-87.033348
1.5484E-6	-85.03901
1.548445E-6	-82.451931
1.54849E-6	-81.170772
1.548535E-6	-81.971579
1.54858E-6	-82.065589
1.548625E-6	-82.280453
1.54867E-6	-81.842895
1.548715E-6	-82.289272
1.54876E-6	-84.975729
1.548805E-6	-85.379016
1.54885E-6	-89.702105
1.548895E-6	-120
1.54894E-6	-91.688344
1.548985E-6	-120
1.54903E-6	-91.512568
1.549075E-6	-88.884015
1.54912E-6	-111.89633
1.549165E-6	-84.353339
1.54921E-6	-84.194171
1.549255E-6	-81.313556
1.5493E-6	-82.104898
1.549345E-6	-82.062794
1.54939E-6	-82.143855
1.549435E-6	-82.04398
1.54948E-6	-81.438151
1.549525E-6	-83.146166
1.54957E-6	-85.697636
1.549615E-6	-85.802094
1.54966E-6	-120
1.549705E-6	-89.222688
1.54975E-6	-89.956786
1.549795E-6	-92.493374
1.54984E-6	-91.587657
1.549885E-6	-79.629721
1.54993E-6	-62.02594
1.549975E-6	-52.481822
1.55002E-6	-48.648673
1.550065E-6	-47.321246
1.55011E-6	-47.084092
1.550155E-6	-47.066374
1.5502E-6	-47.028963
1.550245E-6	-47.084092
1.55029E-6	-47.843624
1.550335E-6	-50.493431
1.55038E-6	-56.905828
1.550425E-6	-67.295541
1.55047E-6	-75.466817
1.550515E-6	-80.979971
1.55056E-6	-85.812017
1.550605E-6	-90.587371
1.55065E-6	-97.931741
1.550695E-6	-96.418747
1.55074E-6	-85.943122
1.550785E-6	-92.249724
1.55083E-6	-82.806687
1.550875E-6	-82.133195
1.55092E-6	-81.653886
1.550965E-6	-81.77309
1.55101E-6	-82.102078
1.551055E-6	-81.24071
1.5511E-6	-82.528991
1.551145E-6	-83.158731
1.55119E-6	-84.581712
1.551235E-6	-87.50557
1.55128E-6	-99.408154
1.551325E-6	-120
1.55137E-6	-120
1.551415E-6	-90.902301
1.55146E-6	-92.823295
1.551505E-6	-90.46772
1.55155E-6	-90.318441
1.551595E-6	-84.570502
1.55164E-6	-82.736804
1.551685E-6	-81.486193
1.55173E-6	-81.782245
1.551775E-6	-81.936165
1.55182E-6	-83.144374
1.551865E-6	-81.694113
1.55191E-6	-82.012113
1.551955E-6	-83.37809
1.552E-6	-93.059215
1.552045E-6	-86.515004
1.55209E-6	-92.892059
1.552135E-6	-90.945279
1.55218E-6	-120
1.552225E-6	-120
1.55227E-6	-120
1.552315E-6	-104.463597
1.55236E-6	-86.68168
1.552405E-6	-83.660268
1.55245E-6	-82.35525
1.552495E-6	-81.359044
1.55254E-6	-81.951113
1.552585E-6	-81.689625
1.55263E-6	-81.478251
1.552675E-6	-81.61025
1.55272E-6	-81.505806
1.552765E-6	-83.888079
1.55281E-6	-86.619421
1.552855E-6	-120
1.5529E-6	-120
1.552945E-6	-86.994045
1.55299E-6	-120
1.553035E-6	-120
1.55308E-6	-120
1.553125E-6	-120
1.55317E-6	-86.170829
1.553215E-6	-83.127387
1.55326E-6	-82.422245
1.553305E-6	-82.000395
1.55335E-6	-80.817075
1.553395E-6	-81.212485
1.55344E-6	-81.726954
1.553485E-6	-78.639139
1.55353E-6	-81.714045
1.553575E-6	-83.569423
1.55362E-6	-88.035475
1.553665E-6	-93.525192
1.55371E-6	-90.379623
1.553755E-6	-89.465374
1.5538E-6	-120
1.553845E-6	-94.6572
1.55389E-6	-96.821455
1.553935E-6	-88.629625
1.55398E-6	-90.328266
1.554025E-6	-83.25874
1.55407E-6	-81.185012
1.554115E-6	-81.90171
1.55416E-6	-80.580416
1.554205E-6	-81.412824
1.55425E-6	-80.844946
1.554295E-6	-81.746388
1.55434E-6	-81.823024
1.554385E-6	-83.491099
1.55443E-6	-85.987718
1.554475E-6	-90.293278
1.55452E-6	-89.829667
1.554565E-6	-93.755116
1.55461E-6	-120
1.554655E-6	-95.421181
1.5547E-6	-92.378468
1.554745E-6	-94.754741
1.55479E-6	-85.55799
1.554835E-6	-82.469534
1.55488E-6	-80.950141
1.554925E-6	-81.45694
1.55497E-6	-81.45269
1.555015E-6	-81.332992
1.55506E-6	-81.13002
1.555105E-6	-80.887358
1.55515E-6	-82.222833
1.555195E-6	-83.652205
1.55524E-6	-85.36555
1.555285E-6	-91.222832
1.55533E-6	-96.639407
1.555375E-6	-90.662091
1.55542E-6	-120
1.555465E-6	-93.068889
1.55551E-6	-89.952488
1.555555E-6	-88.877302
1.5556E-6	-85.914209
1.555645E-6	-82.445063
1.55569E-6	-80.773783
1.555735E-6	-81.984591
1.55578E-6	-80.931803
1.555825E-6	-81.315907
1.55587E-6	-81.683861
1.555915E-6	-81.223408
1.55596E-6	-81.54902
1.556005E-6	-84.90932
1.55605E-6	-87.767637
1.556095E-6	-97.999707
1.55614E-6	-120
1.556185E-6	-95.217222
1.55623E-6	-120
1.556275E-6	-98.709549
1.55632E-6	-120
1.556365E-6	-94.496493
1.55641E-6	-84.787311
1.556455E-6	-81.49415
1.5565E-6	-81.680023
1.556545E-6	-81.036943
1.55659E-6	-82.02594
1.556635E-6	-80.752556
1.55668E-6	-80.487596
1.556725E-6	-81.253443
1.55677E-6	-81.13171
1.556815E-6	-84.327383
1.55686E-6	-86.683703
1.556905E-6	-120
1.55695E-6	-92.758061
1.556995E-6	-88.021683
1.55704E-6	-96.088884
1.557085E-6	-91.526124
1.55713E-6	-89.003194
1.557175E-6	-96.685727
1.55722E-6	-84.220489
1.557265E-6	-83.714067
1.55731E-6	-81.928033
1.557355E-6	-80.996875
1.5574E-6	-81.583903
1.557445E-6	-81.715335
1.55749E-6	-80.973445
1.557535E-6	-86.907958
1.55758E-6	-81.942953
1.557625E-6	-84.2159
1.55767E-6	-93.147959
1.557715E-6	-90.611302
1.55776E-6	-120
1.557805E-6	-120
1.55785E-6	-85.561115
1.557895E-6	-97.744323
1.55794E-6	-120
1.557985E-6	-89.200955
1.55803E-6	-84.011001
1.558075E-6	-82.061398
1.55812E-6	-81.103622
1.558165E-6	-80.786257
1.55821E-6	-81.102502
1.558255E-6	-81.213633
1.5583E-6	-81.612139
1.558345E-6	-81.893643
1.55839E-6	-82.595584
1.558435E-6	-83.288272
1.55848E-6	-93.527149
1.558525E-6	-120
1.55857E-6	-120
1.558615E-6	-92.272384
1.55866E-6	-92.378468
1.558705E-6	-120
1.55875E-6	-120
1.558795E-6	-87.020208
1.55884E-6	-85.287083
1.558885E-6	-82.680891
1.55893E-6	-82.098556
1.558975E-6	-81.657065
1.55902E-6	-81.331812
1.559065E-6	-81.259823
1.55911E-6	-83.889143
1.559155E-6	-81.486193
1.5592E-6	-82.045371
1.559245E-6	-84.609239
1.55929E-6	-91.671719
1.559335E-6	-89.037854
1.55938E-6	-100.425364
1.559425E-6	-91.362609
1.55947E-6	-90.276583
1.559515E-6	-120
1.55956E-6	-120
1.559605E-6	-89.115095
1.55965E-6	-85.072396
1.559695E-6	-83.417977
1.55974E-6	-82.772016
1.559785E-6	-80.952304
1.55983E-6	-81.822364
1.559875E-6	-81.652615
1.55992E-6	-82.488749
1.559965E-6	-81.865525
1.56001E-6	-80.858685
1.560055E-6	-86.032777
1.5601E-6	-86.217839
1.560145E-6	-88.341624
1.56019E-6	-120
1.560235E-6	-120
1.56028E-6	-91.69668
1.560325E-6	-120
1.56037E-6	-89.738755
1.560415E-6	-90.963675
1.56046E-6	-84.709548
1.560505E-6	-83.67138
1.56055E-6	-82.068385
1.560595E-6	-82.585332
1.56064E-6	-81.57266
1.560685E-6	-82.684112
1.56073E-6	-81.947711
1.560775E-6	-82.156681
1.56082E-6	-83.841551
1.560865E-6	-84.587953
1.56091E-6	-92.402566
1.560955E-6	-90.934495
1.561E-6	-94.73144
1.561045E-6	-91.467887
1.56109E-6	-120
1.561135E-6	-120
1.56118E-6	-120
1.561225E-6	-94.432152
1.56127E-6	-84.570502
1.561315E-6	-83.294758
1.56136E-6	-82.273116
1.561405E-6	-82.832456
1.56145E-6	-82.326215
1.561495E-6	-82.872661
1.56154E-6	-82.69864
1.561585E-6	-82.88699
1.56163E-6	-83.307761
1.561675E-6	-84.169146
1.56172E-6	-88.738686
1.561765E-6	-120
1.56181E-6	-97.796304
1.561855E-6	-120
1.5619E-6	-89.54677
1.561945E-6	-120
1.56199E-6	-120
1.562035E-6	-120
1.56208E-6	-86.272721
1.562125E-6	-83.375255
1.56217E-6	-82.807516
1.562215E-6	-82.892059
1.56226E-6	-82.794273
1.562305E-6	-81.730834
1.56235E-6	-84.099388
1.562395E-6	-83.274404
1.56244E-6	-82.003149
1.562485E-6	-86.485902
1.56253E-6	-91.866859
1.562575E-6	-120
1.56262E-6	-120
1.562665E-6	-99.523358
1.56271E-6	-120
1.562755E-6	-91.4752
1.5628E-6	-89.722428
1.562845E-6	-94.535807
1.56289E-6	-87.486051
1.562935E-6	-84.134127
1.56298E-6	-83.363933
1.563025E-6	-82.679281
1.56307E-6	-83.549709
1.563115E-6	-83.470771
1.56316E-6	-84.602968
1.563205E-6	-83.328273
1.56325E-6	-82.884458
1.563295E-6	-88.285661
1.56334E-6	-88.207355
1.563385E-6	-120
1.56343E-6	-93.73044
1.563475E-6	-89.157813
1.56352E-6	-120
1.563565E-6	-88.972234
1.56361E-6	-120
1.563655E-6	-120
1.5637E-6	-95.394028
1.563745E-6	-85.660702
1.56379E-6	-83.498868
1.563835E-6	-84.19189
1.56388E-6	-82.742517
1.563925E-6	-83.053948
1.56397E-6	-85.383514
1.564015E-6	-84.034029
1.56406E-6	-84.745664
1.564105E-6	-86.663512
1.56415E-6	-90.786257
1.564195E-6	-91.778319
1.56424E-6	-86.424463
1.564285E-6	-120
1.56433E-6	-89.706162
1.564375E-6	-98.758219
1.56442E-6	-97.517814
1.564465E-6	-120
1.56451E-6	-85.715412
1.564555E-6	-86.675615
1.5646E-6	-85.297366
1.564645E-6	-84.945787
1.56469E-6	-85.654311
1.564735E-6	-85.554868
1.56478E-6	-83.716111
