Wavelength (nm)	Power (dBm)
1.525E-6	-59.446217
1.525045E-6	-59.450041
1.52509E-6	-60.047159
1.525135E-6	-62.104193
1.52518E-6	-65.8603
1.525225E-6	-69.484616
1.52527E-6	-70.726296
1.525315E-6	-70.932341
1.52536E-6	-70.748943
1.525405E-6	-70.772745
1.52545E-6	-68.9279
1.525495E-6	-63.602148
1.52554E-6	-60.199966
1.525585E-6	-58.696662
1.52563E-6	-58.247782
1.525675E-6	-58.052082
1.52572E-6	-57.910215
1.525765E-6	-57.708303
1.52581E-6	-57.619539
1.525855E-6	-58.06319
1.5259E-6	-59.767475
1.525945E-6	-63.358283
1.52599E-6	-68.046539
1.526035E-6	-70.200876
1.52608E-6	-70.843364
1.526125E-6	-70.786257
1.52617E-6	-70.761345
1.526215E-6	-69.321855
1.52626E-6	-63.557584
1.526305E-6	-59.450041
1.52635E-6	-57.413627
1.526395E-6	-56.842395
1.52644E-6	-56.661499
1.526485E-6	-56.552149
1.52653E-6	-56.476245
1.526575E-6	-56.428277
1.52662E-6	-56.665527
1.526665E-6	-58.068754
1.52671E-6	-61.094672
1.526755E-6	-65.956795
1.5268E-6	-69.833845
1.526845E-6	-70.599818
1.52689E-6	-70.638886
1.526935E-6	-70.547284
1.52698E-6	-69.746941
1.527025E-6	-64.077122
1.52707E-6	-59.168559
1.527115E-6	-56.505282
1.52716E-6	-55.639965
1.527205E-6	-55.442418
1.52725E-6	-55.346171
1.527295E-6	-55.309147
1.52734E-6	-55.234582
1.527385E-6	-55.368539
1.52743E-6	-56.397854
1.527475E-6	-59.150664
1.52752E-6	-63.769576
1.527565E-6	-68.667805
1.52761E-6	-70.246601
1.527655E-6	-70.490027
1.5277E-6	-70.356932
1.527745E-6	-70.023515
1.52779E-6	-65.132862
1.527835E-6	-59.336741
1.52788E-6	-55.958508
1.527925E-6	-54.765137
1.52797E-6	-54.46967
1.528015E-6	-54.390179
1.52806E-6	-54.335625
1.528105E-6	-54.299243
1.52815E-6	-54.340342
1.528195E-6	-54.986668
1.52824E-6	-57.189666
1.528285E-6	-61.309444
1.52833E-6	-66.888822
1.528375E-6	-69.554602
1.52842E-6	-69.842212
1.528465E-6	-68.76475
1.52851E-6	-65.237482
1.528555E-6	-56.281935
1.5286E-6	-40.197239
1.528645E-6	-33.482376
1.52869E-6	-30.308638
1.528735E-6	-29.314431
1.52878E-6	-29.013563
1.528825E-6	-28.9279
1.52887E-6	-28.817353
1.528915E-6	-28.904215
1.52896E-6	-30.31097
1.529005E-6	-34.302751
1.52905E-6	-42.54769
1.529095E-6	-54.301581
1.52914E-6	-61.876215
1.529185E-6	-66.066003
1.52923E-6	-68.016179
1.529275E-6	-66.428277
1.52932E-6	-60.631345
1.529365E-6	-44.026339
1.52941E-6	-35.257837
1.529455E-6	-31.090204
1.5295E-6	-29.492337
1.529545E-6	-29.125735
1.52959E-6	-29.003194
1.529635E-6	-28.917733
1.52968E-6	-28.910969
1.529725E-6	-29.718356
1.52977E-6	-32.69137
1.529815E-6	-39.685915
1.52986E-6	-50.34187
1.529905E-6	-59.817157
1.52995E-6	-64.740487
1.529995E-6	-67.554755
1.53004E-6	-67.196493
1.530085E-6	-62.926002
1.53013E-6	-50.782095
1.530175E-6	-36.829819
1.53022E-6	-31.913165
1.530265E-6	-29.698052
1.53031E-6	-29.069287
1.530355E-6	-28.92112
1.5304E-6	-28.850556
1.530445E-6	-28.804142
1.53049E-6	-29.108016
1.530535E-6	-31.079611
1.53058E-6	-36.083593
1.530625E-6	-45.368539
1.53067E-6	-56.53647
1.530715E-6	-62.525105
1.53076E-6	-66.792308
1.530805E-6	-67.647241
1.53085E-6	-64.592952
1.530895E-6	-55.870357
1.53094E-6	-39.714287
1.530985E-6	-33.100699
1.53103E-6	-30.156077
1.531075E-6	-29.20457
1.53112E-6	-28.992849
1.531165E-6	-28.931295
1.53121E-6	-28.897471
1.531255E-6	-29.020489
1.5313E-6	-30.296066
1.531345E-6	-34.074902
1.53139E-6	-41.691548
1.531435E-6	-52.801717
1.53148E-6	-61.481304
1.531525E-6	-65.797141
1.53157E-6	-67.856861
1.531615E-6	-66.230582
1.53166E-6	-60.634863
1.531705E-6	-44.210172
1.53175E-6	-35.05011
1.531795E-6	-30.82232
1.53184E-6	-29.251836
1.531885E-6	-28.904215
1.53193E-6	-28.820662
1.531975E-6	-28.817353
1.53202E-6	-28.87395
1.532065E-6	-29.500071
1.53211E-6	-32.0412
1.532155E-6	-38.107905
1.5322E-6	-48.23041
1.532245E-6	-58.486301
1.53229E-6	-63.773716
1.532335E-6	-67.249191
1.53238E-6	-67.207895
1.532425E-6	-63.248635
1.53247E-6	-52.069084
1.532515E-6	-37.151183
1.53256E-6	-31.817081
1.532605E-6	-29.542859
1.53265E-6	-28.934691
1.532695E-6	-28.833923
1.53274E-6	-28.860566
1.532785E-6	-28.9279
1.53283E-6	-29.270153
1.532875E-6	-31.038597
1.53292E-6	-35.572068
1.532965E-6	-44.182778
1.53301E-6	-55.795491
1.533055E-6	-61.99833
1.5331E-6	-66.605486
1.533145E-6	-67.796304
1.53319E-6	-65.630427
1.533235E-6	-59.150664
1.53328E-6	-42.157394
1.533325E-6	-34.099388
1.53337E-6	-30.387213
1.533415E-6	-29.065783
1.53346E-6	-28.857227
1.533505E-6	-28.880657
1.53355E-6	-28.955129
1.533595E-6	-29.147094
1.53364E-6	-30.067402
1.533685E-6	-33.13185
1.53373E-6	-39.677843
1.533775E-6	-50.753073
1.53382E-6	-60.181814
1.533865E-6	-64.977095
1.53391E-6	-67.723704
1.533955E-6	-67.028963
1.534E-6	-62.460341
1.534045E-6	-50.362594
1.53409E-6	-36.232406
1.534135E-6	-31.385851
1.53418E-6	-29.336741
1.534225E-6	-28.867253
1.53427E-6	-28.840568
1.534315E-6	-28.931295
1.53436E-6	-29.062282
1.534405E-6	-29.523358
1.53445E-6	-31.576404
1.534495E-6	-36.451236
1.53454E-6	-45.635193
1.534585E-6	-56.724367
1.53463E-6	-62.824127
1.534675E-6	-66.983191
1.53472E-6	-67.809397
1.534765E-6	-65.114493
1.53481E-6	-57.10634
1.534855E-6	-40.694585
1.5349E-6	-33.317073
1.534945E-6	-29.978339
1.53499E-6	-28.92112
1.535035E-6	-28.820662
1.53508E-6	-28.917733
1.535125E-6	-29.027427
1.53517E-6	-29.255493
1.535215E-6	-30.469655
1.53526E-6	-33.992449
1.535305E-6	-41.075158
1.53535E-6	-52.356744
1.535395E-6	-61.313556
1.53544E-6	-65.785606
1.535485E-6	-67.988761
1.53553E-6	-66.976691
1.535575E-6	-62.099965
1.53562E-6	-49.237237
1.535665E-6	-35.985995
1.53571E-6	-31.28252
1.535755E-6	-29.200955
1.5358E-6	-28.810742
1.535845E-6	-28.843895
1.53589E-6	-28.910969
1.535935E-6	-29.023957
1.53598E-6	-29.550685
1.536025E-6	-31.747037
1.53607E-6	-37.230789
1.536115E-6	-46.942188
1.53616E-6	-57.817271
1.536205E-6	-63.322669
1.53625E-6	-67.267672
1.536295E-6	-67.950665
1.53634E-6	-65.007254
1.536385E-6	-56.957249
1.53643E-6	-40.441199
1.536475E-6	-33.244049
1.53652E-6	-29.986991
1.536565E-6	-28.999743
1.53661E-6	-28.894103
1.536655E-6	-28.961963
1.5367E-6	-29.006647
1.536745E-6	-29.197344
1.53679E-6	-30.396719
1.536835E-6	-33.900856
1.53688E-6	-41.263888
1.536925E-6	-52.571963
1.53697E-6	-61.467887
1.537015E-6	-65.798792
1.53706E-6	-68.099486
1.537105E-6	-67.026773
1.53715E-6	-62.393514
1.537195E-6	-49.669786
1.53724E-6	-35.996347
1.537285E-6	-31.42366
1.53733E-6	-29.37418
1.537375E-6	-28.951716
1.53742E-6	-28.931295
1.537465E-6	-28.941493
1.53751E-6	-28.982529
1.537555E-6	-29.450041
1.5376E-6	-31.648804
1.537645E-6	-36.90157
1.53769E-6	-46.53647
1.537735E-6	-57.354183
1.53778E-6	-62.979143
1.537825E-6	-67.119745
1.53787E-6	-67.966951
1.537915E-6	-65.358086
1.53796E-6	-58.709549
1.538005E-6	-41.488028
1.53805E-6	-33.734543
1.538095E-6	-30.190427
1.53814E-6	-29.017025
1.538185E-6	-28.814046
1.53823E-6	-28.797552
1.538275E-6	-28.797552
1.53832E-6	-28.900841
1.538365E-6	-29.965395
1.53841E-6	-33.33482
1.538455E-6	-40.218652
1.5385E-6	-51.444808
1.538545E-6	-60.498787
1.53859E-6	-65.204247
1.538635E-6	-67.899492
1.53868E-6	-67.258422
1.538725E-6	-63.117582
1.53877E-6	-51.325325
1.538815E-6	-37.113037
1.53886E-6	-31.866192
1.538905E-6	-29.645703
1.53895E-6	-29.115095
1.538995E-6	-28.992849
1.53904E-6	-28.944898
1.539085E-6	-28.938091
1.53913E-6	-29.277501
1.539175E-6	-31.185012
1.53922E-6	-36.188849
1.539265E-6	-45.412111
1.53931E-6	-56.695862
1.539355E-6	-62.549252
1.5394E-6	-66.878226
1.539445E-6	-68.110715
1.53949E-6	-65.73001
1.539535E-6	-59.554602
1.53958E-6	-42.39276
1.539625E-6	-34.241197
1.53967E-6	-30.496838
1.539715E-6	-29.219058
1.53976E-6	-28.975663
1.539805E-6	-28.897471
1.53985E-6	-28.840568
1.539895E-6	-28.884015
1.53994E-6	-29.746941
1.539985E-6	-32.790143
1.54003E-6	-39.408154
1.540075E-6	-50.528114
1.54012E-6	-59.982663
1.540165E-6	-64.717262
1.54021E-6	-67.765041
1.540255E-6	-67.512913
1.5403E-6	-63.788237
1.540345E-6	-52.920043
1.54039E-6	-37.92635
1.540435E-6	-32.297373
1.54048E-6	-29.75104
1.540525E-6	-29.041335
1.54057E-6	-28.887375
1.540615E-6	-28.830604
1.54066E-6	-28.794261
1.540705E-6	-29.037854
1.54075E-6	-30.710412
1.540795E-6	-35.029321
1.54084E-6	-43.591212
1.540885E-6	-55.240384
1.54093E-6	-62.543008
1.540975E-6	-66.430186
1.54102E-6	-67.966951
1.541065E-6	-66.458916
1.54111E-6	-61.099704
1.541155E-6	-46.509168
1.5412E-6	-35.439378
1.541245E-6	-31.118205
1.54129E-6	-29.419538
1.541335E-6	-29.0309
1.54138E-6	-28.924509
1.541425E-6	-28.877302
1.54147E-6	-28.884015
1.541515E-6	-29.538952
1.54156E-6	-32.123979
1.541605E-6	-38.224635
1.54165E-6	-48.380334
1.541695E-6	-58.541823
1.54174E-6	-63.897658
1.541785E-6	-67.430418
1.54183E-6	-67.710866
1.541875E-6	-64.606729
1.54192E-6	-55.90405
1.541965E-6	-39.661743
1.54201E-6	-32.975695
1.542055E-6	-29.978339
1.5421E-6	-29.062282
1.542145E-6	-28.867253
1.54219E-6	-28.814046
1.542235E-6	-28.758219
1.54228E-6	-28.877302
1.542325E-6	-30.048476
1.54237E-6	-33.570411
1.542415E-6	-40.950141
1.54246E-6	-52.017638
1.542505E-6	-60.878843
1.54255E-6	-65.551748
1.542595E-6	-67.886124
1.54264E-6	-67.139929
1.542685E-6	-62.537551
1.54273E-6	-50.035759
1.542775E-6	-36.445485
1.54282E-6	-31.650074
1.542865E-6	-29.578184
1.54291E-6	-29.051796
1.542955E-6	-28.948306
1.543E-6	-28.92112
1.543045E-6	-28.890738
1.54309E-6	-29.161392
1.543135E-6	-30.970729
1.54318E-6	-35.639965
1.543225E-6	-44.78339
1.54327E-6	-56.057235
1.543315E-6	-62.062096
1.54336E-6	-66.575773
1.543405E-6	-67.94525
1.54345E-6	-65.868679
1.543495E-6	-59.677843
1.54354E-6	-42.786016
1.543585E-6	-34.546929
1.54363E-6	-30.637377
1.543675E-6	-29.233596
1.54372E-6	-28.941493
1.543765E-6	-28.890738
1.54381E-6	-28.860566
1.543855E-6	-28.884015
1.5439E-6	-29.554602
1.543945E-6	-32.207644
1.54399E-6	-38.541823
1.544035E-6	-48.626459
1.54408E-6	-58.703101
1.544125E-6	-63.998987
1.54417E-6	-67.423214
1.544215E-6	-67.75208
1.54426E-6	-64.366376
1.544305E-6	-55.182708
1.54435E-6	-39.381707
1.544395E-6	-32.90052
1.54444E-6	-30.016535
1.544485E-6	-29.197344
1.54453E-6	-29.041335
1.544575E-6	-28.989406
1.54462E-6	-28.951716
1.544665E-6	-29.069287
1.54471E-6	-30.167346
1.544755E-6	-33.773716
1.5448E-6	-41.317671
1.544845E-6	-52.321765
1.54489E-6	-61.255182
1.544935E-6	-65.529971
1.54498E-6	-67.920965
1.545025E-6	-66.893067
1.54507E-6	-62.38448
1.545115E-6	-49.34047
1.54516E-6	-36.169031
1.545205E-6	-31.553365
1.54525E-6	-29.527251
1.545295E-6	-29.062282
1.54534E-6	-28.972234
1.545385E-6	-28.917733
1.54543E-6	-28.931295
1.545475E-6	-29.284862
1.54552E-6	-31.152046
1.545565E-6	-35.820304
1.54561E-6	-44.877159
1.545655E-6	-56.131445
1.5457E-6	-62.144566
1.545745E-6	-66.617428
1.54579E-6	-67.93714
1.545835E-6	-66.058987
1.54588E-6	-60.36165
1.545925E-6	-43.713046
1.54597E-6	-34.776862
1.546015E-6	-30.671712
1.54606E-6	-29.277501
1.546105E-6	-28.996295
1.54615E-6	-28.934691
1.546195E-6	-28.91435
1.54624E-6	-28.941493
1.546285E-6	-29.500071
1.54633E-6	-31.878892
1.546375E-6	-37.90217
1.54642E-6	-47.888795
1.546465E-6	-58.119156
1.54651E-6	-63.456309
1.546555E-6	-67.223908
1.5466E-6	-67.736579
1.546645E-6	-64.782084
1.54669E-6	-56.110112
1.546735E-6	-40.095723
1.54678E-6	-33.168629
1.546825E-6	-30.094392
1.54687E-6	-29.104481
1.546915E-6	-28.904215
1.54696E-6	-28.877302
1.547005E-6	-28.867253
1.54705E-6	-28.975663
1.547095E-6	-29.982663
1.54714E-6	-33.165027
1.547185E-6	-39.842212
1.54723E-6	-50.784176
1.547275E-6	-60.160581
1.54732E-6	-64.899915
1.547365E-6	-67.644716
1.54741E-6	-67.31422
1.547455E-6	-63.307761
1.5475E-6	-52.355997
1.547545E-6	-37.609509
1.54759E-6	-32.080288
1.547635E-6	-29.609827
1.54768E-6	-28.975663
1.547725E-6	-28.867253
1.54777E-6	-28.843895
1.547815E-6	-28.840568
1.54786E-6	-29.0309
1.547905E-6	-30.391964
1.54795E-6	-34.343883
1.547995E-6	-42.178141
1.54804E-6	-54.225082
1.548085E-6	-61.538485
1.54813E-6	-65.805399
1.548175E-6	-67.817271
1.54822E-6	-66.599527
1.548265E-6	-61.683861
1.54831E-6	-48.215987
1.548355E-6	-35.694412
1.5484E-6	-31.292451
1.548445E-6	-29.370422
1.54849E-6	-28.890738
1.548535E-6	-28.817353
1.54858E-6	-28.814046
1.548625E-6	-28.827287
1.54867E-6	-29.186527
1.548715E-6	-31.098585
1.54876E-6	-36.071273
1.548805E-6	-45.269512
1.54885E-6	-56.210573
1.548895E-6	-62.28339
1.54894E-6	-66.671577
1.548985E-6	-67.835702
1.54903E-6	-65.902359
1.549075E-6	-59.858997
1.54912E-6	-43.872161
1.549165E-6	-34.837291
1.54921E-6	-30.716554
1.549255E-6	-29.193735
1.5493E-6	-28.87395
1.549345E-6	-28.840568
1.54939E-6	-28.843895
1.549435E-6	-28.863908
1.54948E-6	-29.430951
1.549525E-6	-31.819061
1.54957E-6	-37.520267
1.549615E-6	-47.47147
1.54966E-6	-57.75208
1.549705E-6	-63.266104
1.54975E-6	-67.146678
1.549795E-6	-67.780644
1.54984E-6	-65.023794
1.549885E-6	-57.297871
1.54993E-6	-41.027579
1.549975E-6	-33.646168
1.55002E-6	-30.236959
1.550065E-6	-29.157813
1.55011E-6	-28.961963
1.550155E-6	-28.9279
1.5502E-6	-28.904215
1.550245E-6	-28.955129
1.55029E-6	-29.601894
1.550335E-6	-32.233714
1.55038E-6	-38.820662
1.550425E-6	-49.3968
1.55047E-6	-58.955129
1.550515E-6	-64.169146
1.55056E-6	-67.452103
1.550605E-6	-67.592012
1.55065E-6	-64.082678
1.550695E-6	-54.615519
1.55074E-6	-38.890738
1.550785E-6	-32.762161
1.55083E-6	-29.905491
1.550875E-6	-29.076303
1.55092E-6	-28.924509
1.550965E-6	-28.894103
1.55101E-6	-28.87395
1.551055E-6	-28.975663
1.5511E-6	-29.961088
1.551145E-6	-33.236723
1.55119E-6	-40.203151
1.551235E-6	-51.372725
1.55128E-6	-60.263642
1.551325E-6	-65.026556
1.55137E-6	-67.718564
1.551415E-6	-67.361273
1.55146E-6	-63.518352
1.551505E-6	-52.639224
1.55155E-6	-37.862167
1.551595E-6	-32.236621
1.55164E-6	-29.771594
1.551685E-6	-29.086848
1.55173E-6	-28.975663
1.551775E-6	-28.941493
1.55182E-6	-28.910969
1.551865E-6	-29.08333
1.55191E-6	-30.345161
1.551955E-6	-34.131877
1.552E-6	-41.680023
1.552045E-6	-52.447351
1.55209E-6	-61.347183
1.552135E-6	-65.692801
1.55218E-6	-67.870138
1.552225E-6	-66.848697
1.55227E-6	-62.232262
1.552315E-6	-49.446217
1.55236E-6	-36.380834
1.552405E-6	-31.62033
1.55245E-6	-29.542859
1.552495E-6	-29.058784
1.55254E-6	-28.965384
1.552585E-6	-28.931295
1.55263E-6	-28.924509
1.552675E-6	-29.186527
1.55272E-6	-30.807127
1.552765E-6	-35.254924
1.55281E-6	-43.548726
1.552855E-6	-55.083582
1.5529E-6	-62.412395
1.552945E-6	-66.409238
1.55299E-6	-67.956087
1.553035E-6	-66.470461
1.55308E-6	-61.117082
1.553125E-6	-47.349462
1.55317E-6	-35.651119
1.553215E-6	-31.086298
1.55326E-6	-29.325572
1.553305E-6	-28.934691
1.55335E-6	-28.837244
1.553395E-6	-28.78112
1.55344E-6	-28.777841
1.553485E-6	-29.172146
1.55353E-6	-31.071822
1.553575E-6	-35.821963
1.55362E-6	-44.719837
1.553665E-6	-55.780672
1.55371E-6	-61.824346
1.553755E-6	-66.489771
1.5538E-6	-67.883456
1.553845E-6	-66.115435
1.55389E-6	-60.230085
1.553935E-6	-43.883829
1.55398E-6	-34.910665
1.554025E-6	-30.887358
1.55407E-6	-29.3968
1.554115E-6	-29.048306
1.55416E-6	-28.955129
1.554205E-6	-28.944898
1.55425E-6	-28.917733
1.554295E-6	-29.321855
1.55434E-6	-31.36142
1.554385E-6	-36.516951
1.55443E-6	-45.977386
1.554475E-6	-56.942188
1.55452E-6	-62.550815
1.554565E-6	-66.867657
1.55461E-6	-67.862167
1.554655E-6	-65.654311
1.5547E-6	-59.164974
1.554745E-6	-42.505729
1.55479E-6	-34.415314
1.554835E-6	-30.666646
1.55488E-6	-29.347939
1.554925E-6	-29.079815
1.55497E-6	-28.989406
1.555015E-6	-28.965384
1.55506E-6	-29.020489
1.555105E-6	-29.453869
1.55515E-6	-31.672995
1.555195E-6	-37.318903
1.55524E-6	-47.081873
1.555285E-6	-57.488487
1.55533E-6	-63.137213
1.555375E-6	-67.144427
1.55542E-6	-67.872798
1.555465E-6	-65.13853
1.55551E-6	-57.311881
1.555555E-6	-41.202162
1.5556E-6	-33.785121
1.555645E-6	-30.34187
1.55569E-6	-29.259153
1.555735E-6	-29.017025
1.55578E-6	-28.965384
1.555825E-6	-28.944898
1.55587E-6	-28.985966
1.555915E-6	-29.511699
1.55596E-6	-31.878222
1.556005E-6	-37.715996
1.55605E-6	-47.89414
1.556095E-6	-58.005191
1.55614E-6	-63.364875
1.556185E-6	-67.203331
1.55623E-6	-67.798919
1.556275E-6	-65.076587
1.55632E-6	-57.180581
1.556365E-6	-40.906045
1.55641E-6	-33.677452
1.556455E-6	-30.296531
1.5565E-6	-29.175737
1.556545E-6	-28.961963
1.55659E-6	-28.910969
1.556635E-6	-28.904215
1.55668E-6	-28.985966
1.556725E-6	-29.590023
1.55677E-6	-32.086603
1.556815E-6	-38.303256
1.55686E-6	-48.517059
1.556905E-6	-58.365404
1.55695E-6	-63.740705
1.556995E-6	-67.354183
1.55704E-6	-67.806775
1.557085E-6	-64.853195
1.55713E-6	-56.753061
1.557175E-6	-40.594835
1.55722E-6	-33.393242
1.557265E-6	-30.126913
1.55731E-6	-29.04482
1.557355E-6	-28.833923
1.5574E-6	-28.797552
1.557445E-6	-28.784402
1.55749E-6	-28.830604
1.557535E-6	-29.54677
1.55758E-6	-32.208366
1.557625E-6	-38.635966
1.55767E-6	-48.884015
1.557715E-6	-58.693447
1.55776E-6	-63.805936
1.557805E-6	-67.464197
1.55785E-6	-67.851562
1.557895E-6	-64.90663
1.55794E-6	-56.66956
1.557985E-6	-40.520764
1.55803E-6	-33.523237
1.558075E-6	-30.20816
1.55812E-6	-29.069287
1.558165E-6	-28.840568
1.55821E-6	-28.817353
1.558255E-6	-28.840568
1.5583E-6	-28.890738
1.558345E-6	-29.609827
1.55839E-6	-32.399547
1.558435E-6	-38.958544
1.55848E-6	-49.211808
1.558525E-6	-58.758219
1.55857E-6	-63.959901
1.558615E-6	-67.617029
1.55866E-6	-67.856861
1.558705E-6	-64.886515
1.55875E-6	-56.430186
1.558795E-6	-40.384365
1.55884E-6	-33.417023
1.558885E-6	-30.160131
1.55893E-6	-29.108016
1.558975E-6	-28.910969
1.55902E-6	-28.931295
1.559065E-6	-28.938091
1.55911E-6	-29.017025
1.559155E-6	-29.694003
1.5592E-6	-32.367218
1.559245E-6	-38.604357
1.55929E-6	-48.931295
1.559335E-6	-58.784402
1.55938E-6	-64.030732
1.559425E-6	-67.617029
1.55947E-6	-67.90217
1.559515E-6	-64.779472
1.55956E-6	-56.17983
1.559605E-6	-40.090842
1.55965E-6	-33.215727
1.559695E-6	-30.109508
1.55974E-6	-29.115095
1.559785E-6	-28.958544
1.55983E-6	-28.961963
1.559875E-6	-28.999743
1.55992E-6	-29.104481
1.559965E-6	-29.833845
1.56001E-6	-32.540668
1.560055E-6	-38.944898
1.5601E-6	-49.013563
1.560145E-6	-58.884015
1.56019E-6	-64.129629
1.560235E-6	-67.619539
1.56028E-6	-68.10229
1.560325E-6	-65.246194
1.56037E-6	-58.005191
1.560415E-6	-41.000154
1.56046E-6	-33.523237
1.560505E-6	-30.098388
1.56055E-6	-28.992849
1.560595E-6	-28.817353
1.56064E-6	-28.843895
1.560685E-6	-28.87395
1.56073E-6	-28.992849
1.560775E-6	-29.718356
1.56082E-6	-32.429838
1.560865E-6	-38.877302
1.56091E-6	-49.037854
1.560955E-6	-58.92112
1.561E-6	-64.118404
1.561045E-6	-67.664962
1.56109E-6	-68.021683
1.561135E-6	-65.246194
1.56118E-6	-57.335331
1.561225E-6	-41.011103
1.56127E-6	-33.483344
1.561315E-6	-30.082425
1.56136E-6	-28.982529
1.561405E-6	-28.797552
1.56145E-6	-28.817353
1.561495E-6	-28.884015
1.56154E-6	-28.996295
1.561585E-6	-29.633711
1.56163E-6	-32.183164
1.561675E-6	-38.279812
1.56172E-6	-48.150248
1.561765E-6	-58.256494
1.56181E-6	-63.721223
1.561855E-6	-67.589518
1.5619E-6	-68.395315
1.561945E-6	-65.830268
1.56199E-6	-59.597934
1.562035E-6	-42.731099
1.56208E-6	-34.249277
1.562125E-6	-30.434474
1.56217E-6	-29.072794
1.562215E-6	-28.85389
1.56226E-6	-28.887375
1.562305E-6	-28.944898
1.56235E-6	-29.055289
1.562395E-6	-29.531148
1.56244E-6	-31.635493
1.562485E-6	-36.878226
1.56253E-6	-46.138579
1.562575E-6	-56.92932
1.56262E-6	-62.840802
1.562665E-6	-67.180581
1.56271E-6	-68.265224
1.562755E-6	-66.362001
1.5628E-6	-60.447453
1.562845E-6	-46.127882
1.56289E-6	-34.898573
1.562935E-6	-30.594835
1.56298E-6	-29.051796
1.563025E-6	-28.768019
1.56307E-6	-28.790972
1.563115E-6	-28.8706
1.56316E-6	-28.972234
1.563205E-6	-29.404366
1.56325E-6	-31.45087
1.563295E-6	-36.371407
1.56334E-6	-45.820304
1.563385E-6	-56.661499
1.56343E-6	-62.456517
