Wavelength (nm)	Power (dBm)
1.525E-6	-73.569423
1.525045E-6	-73.561527
1.52509E-6	-74.369938
1.525135E-6	-75.946536
1.52518E-6	-79.469216
1.525225E-6	-83.483344
1.52527E-6	-86.35074
1.525315E-6	-86.689778
1.52536E-6	-88.17015
1.525405E-6	-85.828606
1.52545E-6	-84.483061
1.525495E-6	-79.41574
1.52554E-6	-74.602968
1.525585E-6	-73.021606
1.52563E-6	-72.355997
1.525675E-6	-72.20115
1.52572E-6	-71.997642
1.525765E-6	-71.774397
1.52581E-6	-71.579527
1.525855E-6	-71.978422
1.5259E-6	-73.598168
1.525945E-6	-77.304871
1.52599E-6	-81.557093
1.526035E-6	-83.912601
1.52608E-6	-87.205612
1.526125E-6	-87.288557
1.52617E-6	-85.987718
1.526215E-6	-86.507225
1.52626E-6	-79.442395
1.526305E-6	-73.760275
1.52635E-6	-71.782245
1.526395E-6	-70.94474
1.52644E-6	-70.723217
1.526485E-6	-70.690001
1.52653E-6	-70.578431
1.526575E-6	-70.486139
1.52662E-6	-70.721679
1.526665E-6	-71.816421
1.52671E-6	-74.895891
1.526755E-6	-79.090369
1.5268E-6	-84.355707
1.526845E-6	-88.383326
1.52689E-6	-87.055338
1.526935E-6	-85.890541
1.52698E-6	-86.464684
1.527025E-6	-80.757724
1.52707E-6	-73.695721
1.527115E-6	-70.742755
1.52716E-6	-69.892761
1.527205E-6	-69.500071
1.52725E-6	-69.496202
1.527295E-6	-69.329291
1.52734E-6	-69.284862
1.527385E-6	-69.362914
1.52743E-6	-70.24844
1.527475E-6	-72.614573
1.52752E-6	-77.710866
1.527565E-6	-83.068889
1.52761E-6	-86.601512
1.527655E-6	-84.511194
1.5277E-6	-88.598063
1.527745E-6	-88.093882
1.52779E-6	-81.099704
1.527835E-6	-73.950184
1.52788E-6	-70.807127
1.527925E-6	-68.938091
1.52797E-6	-68.607508
1.528015E-6	-68.428456
1.52806E-6	-68.404328
1.528105E-6	-68.431481
1.52815E-6	-68.437538
1.528195E-6	-68.904215
1.52824E-6	-70.856568
1.528285E-6	-74.789927
1.52833E-6	-80.106392
1.528375E-6	-84.120647
1.52842E-6	-87.396901
1.528465E-6	-88.27689
1.52851E-6	-90.140798
1.528555E-6	-84.334447
1.5286E-6	-74.818811
1.528645E-6	-70.446009
1.52869E-6	-68.4649
1.528735E-6	-67.817271
1.52878E-6	-67.652297
1.528825E-6	-67.642191
1.52887E-6	-67.627077
1.528915E-6	-67.654827
1.52896E-6	-68.032713
1.529005E-6	-69.562449
1.52905E-6	-72.751509
1.529095E-6	-77.899492
1.52914E-6	-82.369466
1.529185E-6	-85.416644
1.52923E-6	-85.240384
1.529275E-6	-83.366761
1.52932E-6	-75.627252
1.529365E-6	-60.59633
1.52941E-6	-49.714287
1.529455E-6	-44.881166
1.5295E-6	-43.424661
1.529545E-6	-43.051317
1.52959E-6	-42.942218
1.529635E-6	-42.897134
1.52968E-6	-42.891214
1.529725E-6	-43.778896
1.52977E-6	-47.002748
1.529815E-6	-53.645163
1.52986E-6	-62.382976
1.529905E-6	-71.28252
1.52995E-6	-77.996968
1.529995E-6	-82.246809
1.53004E-6	-83.664306
1.530085E-6	-85.608253
1.53013E-6	-79.901244
1.530175E-6	-71.995579
1.53022E-6	-68.598063
1.530265E-6	-67.162466
1.53031E-6	-66.857113
1.530355E-6	-66.767479
1.5304E-6	-66.781945
1.530445E-6	-66.7305
1.53049E-6	-66.734593
1.530535E-6	-67.377863
1.53058E-6	-69.714287
1.530625E-6	-73.417023
1.53067E-6	-78.392314
1.530715E-6	-82.604277
1.53076E-6	-84.899915
1.530805E-6	-83.431355
1.53085E-6	-81.31238
1.530895E-6	-71.623484
1.53094E-6	-55.073793
1.530985E-6	-47.562181
1.53103E-6	-43.994627
1.531075E-6	-43.126494
1.53112E-6	-42.962788
1.531165E-6	-42.876871
1.53121E-6	-42.832456
1.531255E-6	-43.045183
1.5313E-6	-44.503838
1.531345E-6	-48.431481
1.53139E-6	-56.589614
1.531435E-6	-65.798792
1.53148E-6	-73.34419
1.531525E-6	-78.8706
1.53157E-6	-83.391345
1.531615E-6	-84.080454
1.53166E-6	-82.749055
1.531705E-6	-76.064248
1.53175E-6	-70.433994
1.531795E-6	-67.584535
1.53184E-6	-66.629403
1.531885E-6	-66.534514
1.53193E-6	-66.5267
1.531975E-6	-66.447401
1.53202E-6	-66.542343
1.532065E-6	-66.611453
1.53211E-6	-67.564659
1.532155E-6	-69.948195
1.5322E-6	-74.903943
1.532245E-6	-80.360234
1.53229E-6	-83.650192
1.532335E-6	-87.189666
1.53238E-6	-83.073293
1.532425E-6	-79.381707
1.53247E-6	-66.765416
1.532515E-6	-52.396529
1.53256E-6	-46.225116
1.532605E-6	-43.555614
1.53265E-6	-43.006827
1.532695E-6	-42.902214
1.53274E-6	-42.976556
1.532785E-6	-43.001623
1.53283E-6	-43.388501
1.532875E-6	-45.295895
1.53292E-6	-49.767475
1.532965E-6	-59.442395
1.53301E-6	-68.074325
1.533055E-6	-75.084982
1.5331E-6	-79.558524
1.533145E-6	-83.039058
1.53319E-6	-86.394066
1.533235E-6	-82.586908
1.53328E-6	-75.383514
1.533325E-6	-70.384365
1.53337E-6	-67.804155
1.533415E-6	-67.057543
1.53346E-6	-66.876111
1.533505E-6	-66.968039
1.53355E-6	-67.055338
1.533595E-6	-67.272304
1.53364E-6	-67.437635
1.533685E-6	-68.664611
1.53373E-6	-71.228591
1.533775E-6	-76.633402
1.53382E-6	-81.243022
1.533865E-6	-84.391373
1.53391E-6	-84.765137
1.533955E-6	-83.689623
1.534E-6	-78.498578
1.534045E-6	-65.014138
1.53409E-6	-51.337718
1.534135E-6	-45.281218
1.53418E-6	-43.291977
1.534225E-6	-42.884458
1.53427E-6	-42.920893
1.534315E-6	-42.961929
1.53436E-6	-43.088301
1.534405E-6	-43.615107
1.53445E-6	-45.752817
1.534495E-6	-50.583892
1.53454E-6	-60.562088
1.534585E-6	-68.887375
1.53463E-6	-75.717032
1.534675E-6	-80.466269
1.53472E-6	-83.194832
1.534765E-6	-84.979828
1.53481E-6	-84.514877
1.534855E-6	-75.443939
1.5349E-6	-71.164521
1.534945E-6	-69.215432
1.53499E-6	-68.635966
1.535035E-6	-68.501653
1.53508E-6	-68.51089
1.535125E-6	-68.620133
1.53517E-6	-68.722475
1.535215E-6	-68.91435
1.53526E-6	-70.026573
1.535305E-6	-73.19302
1.53535E-6	-77.715996
1.535395E-6	-82.323989
1.53544E-6	-85.562678
1.535485E-6	-85.551748
1.53553E-6	-84.388986
1.535575E-6	-77.059749
1.53562E-6	-63.99136
1.535665E-6	-51.103062
1.53571E-6	-45.107448
1.535755E-6	-43.224843
1.5358E-6	-42.89375
1.535845E-6	-42.920043
1.53589E-6	-43.003357
1.535935E-6	-43.129172
1.53598E-6	-43.747905
1.536025E-6	-46.156466
1.53607E-6	-51.317671
1.536115E-6	-62.227907
1.53616E-6	-69.079815
1.536205E-6	-76.867657
1.53625E-6	-81.23032
1.536295E-6	-83.21846
1.53634E-6	-84.203307
1.536385E-6	-85.171264
1.53643E-6	-76.753061
1.536475E-6	-72.293689
1.53652E-6	-70.513915
1.536565E-6	-69.863203
1.53661E-6	-69.821323
1.536655E-6	-69.838026
1.5367E-6	-69.863203
1.536745E-6	-69.922522
1.53679E-6	-70.163286
1.536835E-6	-71.490476
1.53688E-6	-74.020855
1.536925E-6	-79.625735
1.53697E-6	-83.520305
1.537015E-6	-85.215778
1.53706E-6	-85.439378
1.537105E-6	-84.522253
1.53715E-6	-78.416375
1.537195E-6	-64.332091
1.53724E-6	-51.200444
1.537285E-6	-45.176982
1.53733E-6	-43.284569
1.537375E-6	-42.926002
1.53742E-6	-42.890369
1.537465E-6	-42.933675
1.53751E-6	-42.977418
1.537555E-6	-43.543813
1.5376E-6	-45.845258
1.537645E-6	-50.985417
1.53769E-6	-61.571412
1.537735E-6	-69.788107
1.53778E-6	-76.515004
1.537825E-6	-81.098026
1.53787E-6	-84.714689
1.537915E-6	-86.064248
1.53796E-6	-84.05718
1.538005E-6	-78.664611
1.53805E-6	-73.085648
1.538095E-6	-71.213633
1.53814E-6	-70.596828
1.538185E-6	-70.337644
1.53823E-6	-70.408155
1.538275E-6	-70.391964
1.53832E-6	-70.412451
1.538365E-6	-70.513915
1.53841E-6	-71.662156
1.538455E-6	-74.638205
1.5385E-6	-79.115095
1.538545E-6	-83.494011
1.53859E-6	-84.100504
1.538635E-6	-85.721894
1.53868E-6	-84.110564
1.538725E-6	-79.54677
1.53877E-6	-65.752817
1.538815E-6	-52.231536
1.53886E-6	-46.265363
1.538905E-6	-43.616106
1.53895E-6	-43.138108
1.538995E-6	-43.069769
1.53904E-6	-43.032942
1.539085E-6	-43.021606
1.53913E-6	-43.360165
1.539175E-6	-45.491353
1.53922E-6	-50.328734
1.539265E-6	-60.690001
1.53931E-6	-69.069287
1.539355E-6	-75.8603
1.5394E-6	-80.36401
1.539445E-6	-83.864753
1.53949E-6	-85.021033
1.539535E-6	-85.250557
1.53958E-6	-79.515582
1.539625E-6	-73.484313
1.53967E-6	-71.108664
1.539715E-6	-70.408155
1.53976E-6	-70.287242
1.539805E-6	-70.170507
1.53985E-6	-70.058589
1.539895E-6	-70.244763
1.53994E-6	-70.286778
1.539985E-6	-71.293035
1.54003E-6	-74.015378
1.540075E-6	-79.284862
1.54012E-6	-82.628074
1.540165E-6	-84.873156
1.54021E-6	-84.162346
1.540255E-6	-85.307673
1.5403E-6	-80.341401
1.540345E-6	-69.154237
1.54039E-6	-52.967086
1.540435E-6	-46.613443
1.54048E-6	-43.697756
1.540525E-6	-43.078584
1.54057E-6	-42.967946
1.540615E-6	-42.866775
1.54066E-6	-42.846653
1.540705E-6	-43.161428
1.54075E-6	-44.962093
1.540795E-6	-49.193735
1.54084E-6	-58.87395
1.540885E-6	-67.481185
1.54093E-6	-74.789927
1.540975E-6	-79.718356
1.54102E-6	-82.782718
1.541065E-6	-83.969639
1.54111E-6	-86.434006
1.541155E-6	-79.738755
1.5412E-6	-73.443814
1.541245E-6	-70.82232
1.54129E-6	-69.817157
1.541335E-6	-69.601894
1.54138E-6	-69.582127
1.541425E-6	-69.609827
1.54147E-6	-69.562449
1.541515E-6	-69.689957
1.54156E-6	-70.423448
1.541605E-6	-72.60665
1.54165E-6	-77.32359
1.541695E-6	-81.329452
1.54174E-6	-85.424209
1.541785E-6	-86.046736
1.54183E-6	-84.76774
1.541875E-6	-80.649464
1.54192E-6	-71.805877
1.541965E-6	-54.959371
1.54201E-6	-47.461776
1.542055E-6	-43.91688
1.5421E-6	-43.104248
1.542145E-6	-42.905604
1.54219E-6	-42.839967
1.542235E-6	-42.839967
1.54228E-6	-42.967086
1.542325E-6	-44.263163
1.54237E-6	-48.175853
1.542415E-6	-55.984272
1.54246E-6	-64.862498
1.542505E-6	-72.683307
1.54255E-6	-79.411945
1.542595E-6	-81.730187
1.54264E-6	-84.700566
1.542685E-6	-84.129629
1.54273E-6	-80.451788
1.542775E-6	-73.837346
1.54282E-6	-70.771189
1.542865E-6	-69.473061
1.54291E-6	-69.186527
1.542955E-6	-69.186527
1.543E-6	-69.125735
1.543045E-6	-69.147094
1.54309E-6	-69.111554
1.543135E-6	-69.558524
1.54318E-6	-71.323558
1.543225E-6	-75.22734
1.54327E-6	-79.92679
1.543315E-6	-85.004504
1.54336E-6	-85.575202
1.543405E-6	-84.153296
1.54345E-6	-81.787486
1.543495E-6	-74.58296
1.54354E-6	-59.347939
1.543585E-6	-48.955129
1.54363E-6	-44.537042
1.543675E-6	-43.227582
1.54372E-6	-42.973972
1.543765E-6	-42.937945
1.54381E-6	-42.914092
1.543855E-6	-42.952491
1.5439E-6	-43.732491
1.543945E-6	-46.589614
1.54399E-6	-52.84749
1.544035E-6	-61.415831
1.54408E-6	-70.505612
1.544125E-6	-76.842395
1.54417E-6	-81.292451
1.544215E-6	-83.534982
1.54426E-6	-85.614577
1.544305E-6	-82.411638
1.54435E-6	-74.93901
1.544395E-6	-71.185012
1.54444E-6	-69.434763
1.544485E-6	-68.900841
1.54453E-6	-68.774565
1.544575E-6	-68.810742
1.54462E-6	-68.860566
1.544665E-6	-68.820662
1.54471E-6	-69.055289
1.544755E-6	-70.413883
1.5448E-6	-73.335756
1.544845E-6	-78.374356
1.54489E-6	-83.537924
1.544935E-6	-85.238933
1.54498E-6	-84.709548
1.545025E-6	-84.346245
1.54507E-6	-78.08549
1.545115E-6	-63.753055
1.54516E-6	-51.165089
1.545205E-6	-45.292956
1.54525E-6	-43.441895
1.545295E-6	-43.047811
1.54534E-6	-42.965367
1.545385E-6	-42.938799
1.54543E-6	-42.935383
1.545475E-6	-43.335756
1.54552E-6	-45.332806
1.545565E-6	-50.068284
1.54561E-6	-59.854795
1.545655E-6	-68.175853
1.5457E-6	-75.282683
1.545745E-6	-79.833845
1.54579E-6	-83.731466
1.545835E-6	-84.436975
1.54588E-6	-85.655908
1.545925E-6	-78.461851
1.54597E-6	-72.307704
1.546015E-6	-69.767475
1.54606E-6	-68.833923
1.546105E-6	-68.722475
1.54615E-6	-68.71924
1.546195E-6	-68.658229
1.54624E-6	-68.703101
1.546285E-6	-68.735439
1.54633E-6	-69.582127
1.546375E-6	-71.790108
1.54642E-6	-76.013657
1.546465E-6	-81.494763
1.54651E-6	-83.732491
1.546555E-6	-84.45632
1.5466E-6	-83.977229
1.546645E-6	-80.482255
1.54669E-6	-71.82633
1.546735E-6	-55.654311
1.54678E-6	-47.624563
1.546825E-6	-44.042834
1.54687E-6	-43.143478
1.546915E-6	-42.971388
1.54696E-6	-42.937945
1.547005E-6	-42.940508
1.54705E-6	-43.075938
1.547095E-6	-44.173686
1.54714E-6	-47.652297
1.547185E-6	-54.613006
1.54723E-6	-63.634118
1.547275E-6	-72.269453
1.54732E-6	-78.629625
1.547365E-6	-82.699448
1.54741E-6	-84.424928
1.547455E-6	-84.877159
1.5475E-6	-81.505192
1.547545E-6	-73.865811
1.54759E-6	-70.522233
1.547635E-6	-69.037854
1.54768E-6	-68.751699
1.547725E-6	-68.655041
1.54777E-6	-68.655041
1.547815E-6	-68.591778
1.54786E-6	-68.674202
1.547905E-6	-69.017025
1.54795E-6	-70.616805
1.547995E-6	-73.840499
1.54804E-6	-79.344203
1.548085E-6	-83.199366
1.54813E-6	-85.609833
1.548175E-6	-84.417716
1.54822E-6	-83.489159
1.548265E-6	-76.703988
1.54831E-6	-62.877713
1.548355E-6	-50.747395
1.5484E-6	-45.253467
1.548445E-6	-43.512498
1.54849E-6	-43.112243
1.548535E-6	-43.051317
1.54858E-6	-43.051317
1.548625E-6	-43.049563
1.54867E-6	-43.472703
1.548715E-6	-45.578339
1.54876E-6	-50.336705
1.548805E-6	-60.678815
1.54885E-6	-68.768019
1.548895E-6	-75.873715
1.54894E-6	-81.26912
1.548985E-6	-84.455108
1.54903E-6	-85.446982
1.549075E-6	-84.218194
1.54912E-6	-78.259402
1.549165E-6	-72.233714
1.54921E-6	-69.601894
1.549255E-6	-68.827287
1.5493E-6	-68.658229
1.549345E-6	-68.677403
1.54939E-6	-68.716007
1.549435E-6	-68.699881
1.54948E-6	-68.784402
1.549525E-6	-69.434763
1.54957E-6	-71.651344
1.549615E-6	-76.281935
1.54966E-6	-81.067932
1.549705E-6	-84.235435
1.54975E-6	-85.492891
1.549795E-6	-84.653394
1.54984E-6	-82.145278
1.549885E-6	-72.805858
1.54993E-6	-56.34512
1.549975E-6	-47.972393
1.55002E-6	-44.112802
1.550065E-6	-43.1078
1.55011E-6	-42.934529
1.550155E-6	-42.909846
1.5502E-6	-42.888679
1.550245E-6	-42.977418
1.55029E-6	-43.773716
1.550335E-6	-46.699923
1.55038E-6	-53.065369
1.550425E-6	-62.083094
1.55047E-6	-70.588365
1.550515E-6	-77.609509
1.55056E-6	-81.130583
1.550605E-6	-84.092696
1.55065E-6	-85.590909
1.550695E-6	-82.660007
1.55074E-6	-74.77295
1.550785E-6	-70.9691
1.55083E-6	-69.161392
1.550875E-6	-68.632794
1.55092E-6	-68.523237
1.550965E-6	-68.53872
1.55101E-6	-68.582368
1.551055E-6	-68.616973
1.5511E-6	-68.814046
1.551145E-6	-69.842212
1.55119E-6	-72.906452
1.551235E-6	-78.016179
1.55128E-6	-82.714028
1.551325E-6	-85.457651
1.55137E-6	-85.477534
1.551415E-6	-85.162701
1.55146E-6	-79.641702
1.551505E-6	-68.761484
1.55155E-6	-53.118472
1.551595E-6	-46.819367
1.55164E-6	-43.802807
1.551685E-6	-43.211176
1.55173E-6	-43.067128
1.551775E-6	-43.055703
1.55182E-6	-43.073293
1.551865E-6	-43.21846
1.55191E-6	-44.686488
1.551955E-6	-48.751699
1.552E-6	-56.957249
1.552045E-6	-65.568935
1.55209E-6	-73.29105
1.552135E-6	-79.266483
1.55218E-6	-83.54676
1.552225E-6	-84.36875
1.55227E-6	-84.31329
1.552315E-6	-80.051552
1.55236E-6	-73.394191
1.552405E-6	-70.051552
1.55245E-6	-68.790972
1.552495E-6	-68.477117
1.55254E-6	-68.452718
1.552585E-6	-68.489367
1.55263E-6	-68.341624
1.552675E-6	-68.428456
1.55272E-6	-68.804142
1.552765E-6	-70.567034
1.55281E-6	-74.474535
1.552855E-6	-79.129288
1.5529E-6	-84.213608
1.552945E-6	-91.553365
1.55299E-6	-87.23998
1.553035E-6	-83.090954
1.55308E-6	-76.170829
1.553125E-6	-61.921945
1.55317E-6	-49.978339
1.553215E-6	-44.824083
1.55326E-6	-43.240385
1.553305E-6	-42.936236
1.55335E-6	-42.849163
1.553395E-6	-42.819968
1.55344E-6	-42.844144
1.553485E-6	-43.25874
1.55353E-6	-45.325399
1.553575E-6	-50.085967
1.55362E-6	-60.11441
1.553665E-6	-68.06319
1.55371E-6	-75.343198
1.553755E-6	-79.952488
1.5538E-6	-83.115802
1.553845E-6	-85.951663
1.55389E-6	-83.610118
1.553935E-6	-78.057633
1.55398E-6	-71.758091
1.554025E-6	-69.351678
1.55407E-6	-68.407337
1.554115E-6	-68.27689
1.55416E-6	-68.227522
1.554205E-6	-68.233301
1.55425E-6	-68.271053
1.554295E-6	-68.271053
1.55434E-6	-68.948306
1.554385E-6	-71.067377
1.55443E-6	-75.071
1.554475E-6	-79.461536
1.55452E-6	-84.849213
1.554565E-6	-86.482037
1.55461E-6	-85.448505
1.554655E-6	-81.44602
1.5547E-6	-74.256214
1.554745E-6	-58.934691
1.55479E-6	-48.847224
1.554835E-6	-44.581712
1.55488E-6	-43.404641
1.554925E-6	-43.141687
1.55497E-6	-43.065369
1.555015E-6	-43.048687
1.55506E-6	-43.110465
1.555105E-6	-43.636124
1.55515E-6	-46.038007
1.555195E-6	-51.580152
1.55524E-6	-62.253371
1.555285E-6	-69.055289
1.55533E-6	-76.716204
1.555375E-6	-80.911398
1.55542E-6	-83.844708
1.555465E-6	-84.621809
1.55551E-6	-83.636124
1.555555E-6	-75.70894
1.5556E-6	-71.046327
1.555645E-6	-68.890738
1.55569E-6	-68.244882
1.555735E-6	-68.195874
1.55578E-6	-68.054857
1.555825E-6	-68.074325
1.55587E-6	-68.127614
1.555915E-6	-68.22175
1.55596E-6	-69.055289
1.556005E-6	-71.327093
1.55605E-6	-76.027554
1.556095E-6	-80.850754
1.55614E-6	-84.805658
1.556185E-6	-86.501399
1.55623E-6	-86.022337
1.556275E-6	-81.643094
1.55632E-6	-72.586908
1.556365E-6	-56.210573
1.55641E-6	-48.079904
1.556455E-6	-44.118404
1.5565E-6	-43.135425
1.556545E-6	-42.937945
1.55659E-6	-42.865095
1.556635E-6	-42.90052
1.55668E-6	-42.971388
1.556725E-6	-43.686577
1.55677E-6	-46.460838
1.556815E-6	-52.571178
1.55686E-6	-61.357857
1.556905E-6	-70.014355
1.55695E-6	-76.742791
1.556995E-6	-81.118205
1.55704E-6	-84.034029
1.557085E-6	-85.247648
1.55713E-6	-81.723077
1.557175E-6	-75.197055
1.55722E-6	-70.811313
1.557265E-6	-68.843895
1.55731E-6	-68.215987
1.557355E-6	-68.116341
1.5574E-6	-68.158766
1.557445E-6	-68.158766
1.55749E-6	-68.068754
1.557535E-6	-68.210231
1.55758E-6	-69.259153
1.557625E-6	-71.641193
1.55767E-6	-76.38461
1.557715E-6	-81.015491
1.55776E-6	-85.252012
1.557805E-6	-84.726279
1.55785E-6	-84.199879
1.557895E-6	-81.73666
1.55794E-6	-72.332155
1.557985E-6	-55.660702
1.55803E-6	-47.710866
1.558075E-6	-44.049449
1.55812E-6	-43.039933
1.558165E-6	-42.814153
1.55821E-6	-42.805858
1.558255E-6	-42.864255
1.5583E-6	-42.90052
1.558345E-6	-43.748934
1.55839E-6	-46.792308
1.558435E-6	-53.220282
1.55848E-6	-62.116902
1.558525E-6	-70.722192
1.55857E-6	-77.449688
1.558615E-6	-81.28719
1.55866E-6	-83.929741
1.558705E-6	-82.90052
1.55875E-6	-82.34108
1.558795E-6	-75.276825
1.55884E-6	-70.914078
1.558885E-6	-68.985966
1.55893E-6	-68.434508
1.558975E-6	-68.309136
1.55902E-6	-68.395315
1.559065E-6	-68.323873
1.55911E-6	-68.326827
1.559155E-6	-68.461851
1.5592E-6	-69.442395
1.559245E-6	-71.619699
1.55929E-6	-76.657474
1.559335E-6	-80.676785
1.55938E-6	-85.037625
1.559425E-6	-87.375489
1.55947E-6	-120
1.559515E-6	-80.74327
1.55956E-6	-72.100669
1.559605E-6	-55.340226
1.55965E-6	-47.527635
1.559695E-6	-43.906191
1.55974E-6	-43.011169
1.559785E-6	-42.901367
1.55983E-6	-42.908997
1.559875E-6	-42.963648
1.55992E-6	-43.057459
1.559965E-6	-43.890206
1.56001E-6	-46.831912
1.560055E-6	-53.087416
1.5601E-6	-61.680663
1.560145E-6	-70.498299
1.56019E-6	-77.290884
1.560235E-6	-81.5422
1.56028E-6	-84.432152
1.560325E-6	-86.29117
1.56037E-6	-83.873221
1.560415E-6	-75.700863
1.56046E-6	-71.436941
1.560505E-6	-69.558524
1.56055E-6	-68.955129
1.560595E-6	-68.847224
1.56064E-6	-68.897471
1.560685E-6	-68.92112
1.56073E-6	-68.961963
1.560775E-6	-69.111554
1.56082E-6	-69.867413
1.560865E-6	-72.35077
1.56091E-6	-77.081873
1.560955E-6	-80.857097
1.561E-6	-85.096201
1.561045E-6	-87.817271
1.56109E-6	-85.011383
1.561135E-6	-81.795358
1.56118E-6	-72.986911
1.561225E-6	-56.3865
1.56127E-6	-47.864822
1.561315E-6	-43.881705
1.56136E-6	-42.928558
1.561405E-6	-42.804201
1.56145E-6	-42.855026
1.561495E-6	-42.903061
1.56154E-6	-42.980005
1.561585E-6	-43.747905
1.56163E-6	-46.478175
1.561675E-6	-52.647206
1.56172E-6	-61.065157
1.561765E-6	-70.068284
1.56181E-6	-77.384992
1.561855E-6	-81.113713
1.5619E-6	-84.30392
1.561945E-6	-87.064165
1.56199E-6	-83.868985
1.562035E-6	-78.428456
1.56208E-6	-72.834958
1.562125E-6	-70.64896
1.56217E-6	-69.867413
1.562215E-6	-69.689957
1.56226E-6	-69.698052
1.562305E-6	-69.694003
1.56235E-6	-69.833845
1.562395E-6	-69.931063
1.56244E-6	-70.533513
1.562485E-6	-72.576677
1.56253E-6	-76.846595
1.562575E-6	-80.829148
1.56262E-6	-85.142786
1.562665E-6	-86.20332
1.56271E-6	-85.486742
1.562755E-6	-82.060002
1.5628E-6	-74.925489
1.562845E-6	-60.561594
1.56289E-6	-49.292235
1.562935E-6	-44.40213
1.56298E-6	-43.040807
1.563025E-6	-42.809174
1.56307E-6	-42.841637
1.563115E-6	-42.917491
1.56316E-6	-43.054825
1.563205E-6	-43.560541
1.56325E-6	-45.734887
1.563295E-6	-50.741209
1.56334E-6	-61.067932
1.563385E-6	-69.090369
1.56343E-6	-75.636783
