Wavelength (nm)	Power (dBm)
1.525E-6	-74.649592
1.525045E-6	-75.026556
1.52509E-6	-75.679933
1.525135E-6	-77.654827
1.52518E-6	-80.685421
1.525225E-6	-83.936186
1.52527E-6	-89.804683
1.525315E-6	-87.330631
1.52536E-6	-87.607005
1.525405E-6	-91.490476
1.52545E-6	-85.087784
1.525495E-6	-81.094113
1.52554E-6	-76.085356
1.525585E-6	-73.840499
1.52563E-6	-73.629107
1.525675E-6	-73.304042
1.52572E-6	-73.21846
1.525765E-6	-73.243133
1.52581E-6	-73.220282
1.525855E-6	-73.348883
1.5259E-6	-75.072396
1.525945E-6	-78.45576
1.52599E-6	-83.118472
1.526035E-6	-92.753146
1.52608E-6	-116.802695
1.526125E-6	-89.288547
1.52617E-6	-88.632794
1.526215E-6	-87.726276
1.52626E-6	-81.366771
1.526305E-6	-75.499049
1.52635E-6	-73.074174
1.526395E-6	-72.274583
1.52644E-6	-72.020404
1.526485E-6	-72.109131
1.52653E-6	-71.937522
1.526575E-6	-71.74509
1.52662E-6	-72.087305
1.526665E-6	-73.250471
1.52671E-6	-75.88212
1.526755E-6	-80.449861
1.5268E-6	-85.91082
1.526845E-6	-88.268137
1.52689E-6	-90.574959
1.526935E-6	-91.307096
1.52698E-6	-120
1.527025E-6	-82.084497
1.52707E-6	-74.956651
1.527115E-6	-72.177424
1.52716E-6	-71.218805
1.527205E-6	-70.887891
1.52725E-6	-70.707855
1.527295E-6	-70.641905
1.52734E-6	-70.516849
1.527385E-6	-70.678308
1.52743E-6	-71.566426
1.527475E-6	-73.948027
1.52752E-6	-78.395315
1.527565E-6	-82.727842
1.52761E-6	-88.526329
1.527655E-6	-90.216369
1.5277E-6	-88.968807
1.527745E-6	-86.718243
1.52779E-6	-82.448114
1.527835E-6	-75.221555
1.52788E-6	-71.720495
1.527925E-6	-70.341401
1.52797E-6	-70.069166
1.528015E-6	-69.808837
1.52806E-6	-69.842212
1.528105E-6	-69.804683
1.52815E-6	-69.800533
1.528195E-6	-70.224136
1.52824E-6	-72.033563
1.528285E-6	-76.272721
1.52833E-6	-81.594548
1.528375E-6	-87.700623
1.52842E-6	-90.787298
1.528465E-6	-87.723704
1.52851E-6	-91.705033
1.528555E-6	-87.370745
1.5286E-6	-76.35074
1.528645E-6	-71.960652
1.52869E-6	-69.909743
1.528735E-6	-69.362914
1.52878E-6	-69.150664
1.528825E-6	-69.150664
1.52887E-6	-69.136402
1.528915E-6	-68.961963
1.52896E-6	-69.351678
1.529005E-6	-70.774821
1.52905E-6	-73.978314
1.529095E-6	-78.867253
1.52914E-6	-84.639468
1.529185E-6	-88.204482
1.52923E-6	-87.061956
1.529275E-6	-86.965879
1.52932E-6	-86.865546
1.529365E-6	-79.362914
1.52941E-6	-72.379219
1.529455E-6	-69.880069
1.5295E-6	-68.860566
1.529545E-6	-68.642315
1.52959E-6	-68.623295
1.529635E-6	-68.520147
1.52968E-6	-68.610661
1.529725E-6	-68.613816
1.52977E-6	-69.558524
1.529815E-6	-72.150976
1.52986E-6	-77.349462
1.529905E-6	-82.063493
1.52995E-6	-86.071273
1.529995E-6	-98.187282
1.53004E-6	-88.880657
1.530085E-6	-88.088285
1.53013E-6	-83.156035
1.530175E-6	-73.623102
1.53022E-6	-70.076232
1.530265E-6	-68.655041
1.53031E-6	-68.350526
1.530355E-6	-68.239087
1.5304E-6	-68.204482
1.530445E-6	-68.210231
1.53049E-6	-68.210231
1.530535E-6	-68.777841
1.53058E-6	-70.640395
1.530625E-6	-74.639468
1.53067E-6	-79.92679
1.530715E-6	-86.036263
1.53076E-6	-86.032777
1.530805E-6	-96.294869
1.53085E-6	-89.164974
1.530895E-6	-83.843655
1.53094E-6	-75.744658
1.530985E-6	-70.907115
1.53103E-6	-68.884015
1.531075E-6	-68.17015
1.53112E-6	-68.088285
1.531165E-6	-68.04931
1.53121E-6	-68.046539
1.531255E-6	-68.016179
1.5313E-6	-68.344589
1.531345E-6	-69.673812
1.53139E-6	-73.011169
1.531435E-6	-78.677403
1.53148E-6	-82.644011
1.531525E-6	-86.046736
1.53157E-6	-88.880657
1.531615E-6	-86.649435
1.53166E-6	-86.145725
1.531705E-6	-79.055289
1.53175E-6	-71.88492
1.531795E-6	-69.377942
1.53184E-6	-68.218867
1.531885E-6	-68.071539
1.53193E-6	-68.093882
1.531975E-6	-68.099486
1.53202E-6	-68.035475
1.532065E-6	-68.207355
1.53211E-6	-69.161392
1.532155E-6	-71.27203
1.5322E-6	-76.216021
1.532245E-6	-81.097467
1.53229E-6	-86.623411
1.532335E-6	-89.208188
1.53238E-6	-93.447655
1.532425E-6	-89.871628
1.53247E-6	-82.617746
1.532515E-6	-74.260846
1.53256E-6	-70.227338
1.532605E-6	-68.635966
1.53265E-6	-68.294449
1.532695E-6	-68.150248
1.53274E-6	-68.144578
1.532785E-6	-68.184422
1.53283E-6	-68.279812
1.532875E-6	-68.725712
1.53292E-6	-70.315171
1.532965E-6	-73.885954
1.53301E-6	-79.24453
1.533055E-6	-85.647929
1.5331E-6	-89.125735
1.533145E-6	-86.639407
1.53319E-6	-88.741935
1.533235E-6	-84.609239
1.53328E-6	-78.130437
1.533325E-6	-71.850203
1.53337E-6	-69.613798
1.533415E-6	-68.758219
1.53346E-6	-68.626459
1.533505E-6	-68.604357
1.53355E-6	-68.810742
1.533595E-6	-68.513973
1.53364E-6	-68.948306
1.533685E-6	-69.92679
1.53373E-6	-72.653602
1.533775E-6	-77.975117
1.53382E-6	-83.570411
1.533865E-6	-85.477534
1.53391E-6	-86.399749
1.533955E-6	-90.683388
1.534E-6	-86.456994
1.534045E-6	-82.800889
1.53409E-6	-74.333269
1.534135E-6	-71.554607
1.53418E-6	-69.613798
1.534225E-6	-69.325572
1.53427E-6	-69.34047
1.534315E-6	-69.351678
1.53436E-6	-69.404366
1.534405E-6	-69.473061
1.53445E-6	-70.010871
1.534495E-6	-71.774397
1.53454E-6	-75.589336
1.534585E-6	-81.008364
1.53463E-6	-85.499049
1.534675E-6	-91.427278
1.53472E-6	-95.419668
1.534765E-6	-88.01893
1.53481E-6	-84.436975
1.534855E-6	-78.486301
1.5349E-6	-72.340336
1.534945E-6	-70.747395
1.53499E-6	-70.041455
1.535035E-6	-69.948195
1.53508E-6	-69.991323
1.535125E-6	-69.918258
1.53517E-6	-70.016971
1.535215E-6	-70.27057
1.53526E-6	-71.562068
1.535305E-6	-74.429743
1.53535E-6	-78.887375
1.535395E-6	-85.358086
1.53544E-6	-86.794383
1.535485E-6	-89.41574
1.53553E-6	-91.412824
1.535575E-6	-88.645493
1.53562E-6	-82.347041
1.535665E-6	-75.010006
1.53571E-6	-72.307704
1.535755E-6	-70.86557
1.5358E-6	-70.798245
1.535845E-6	-70.659057
1.53589E-6	-70.771708
1.535935E-6	-70.773264
1.53598E-6	-70.711946
1.536025E-6	-71.344223
1.53607E-6	-73.571399
1.536115E-6	-77.6675
1.53616E-6	-81.75744
1.536205E-6	-90.204972
1.53625E-6	-85.949953
1.536295E-6	-120
1.53634E-6	-88.013429
1.536385E-6	-88.124793
1.53643E-6	-79.35542
1.536475E-6	-73.766473
1.53652E-6	-71.818401
1.536565E-6	-71.359638
1.53661E-6	-71.195294
1.536655E-6	-71.270866
1.5367E-6	-71.336536
1.536745E-6	-71.237822
1.53679E-6	-71.434524
1.536835E-6	-72.61061
1.53688E-6	-75.657505
1.536925E-6	-79.978339
1.53697E-6	-85.332806
1.537015E-6	-86.819367
1.53706E-6	-87.196493
1.537105E-6	-87.89414
1.53715E-6	-87.004927
1.537195E-6	-82.614573
1.53724E-6	-76.289321
1.537285E-6	-73.10336
1.53733E-6	-71.856192
1.537375E-6	-71.590788
1.53742E-6	-71.567049
1.537465E-6	-71.603334
1.53751E-6	-71.589535
1.537555E-6	-71.651979
1.5376E-6	-72.019021
1.537645E-6	-74.288737
1.53769E-6	-77.690404
1.537735E-6	-83.91474
1.53778E-6	-86.520848
1.537825E-6	-90.590355
1.53787E-6	-91.622222
1.537915E-6	-120
1.53796E-6	-86.575773
1.538005E-6	-80.72835
1.53805E-6	-74.497716
1.538095E-6	-72.528991
1.53814E-6	-71.855526
1.538185E-6	-71.7829
1.53823E-6	-71.688984
1.538275E-6	-71.71018
1.53832E-6	-71.692831
1.538365E-6	-71.91249
1.53841E-6	-73.060973
1.538455E-6	-75.539291
1.5385E-6	-79.661743
1.538545E-6	-86.341378
1.53859E-6	-86.272721
1.538635E-6	-91.90373
1.53868E-6	-90.587868
1.538725E-6	-86.324577
1.53877E-6	-84.647059
1.538815E-6	-76.569855
1.53886E-6	-73.484313
1.538905E-6	-72.012803
1.53895E-6	-71.821042
1.538995E-6	-71.671081
1.53904E-6	-71.734717
1.539085E-6	-71.633595
1.53913E-6	-71.631697
1.539175E-6	-72.007973
1.53922E-6	-73.893398
1.539265E-6	-77.335331
1.53931E-6	-82.722961
1.539355E-6	-85.675117
1.5394E-6	-97.682756
1.539445E-6	-86.458916
1.53949E-6	-87.124222
1.539535E-6	-87.042131
1.53958E-6	-81.011103
1.539625E-6	-74.594203
1.53967E-6	-72.248995
1.539715E-6	-71.664704
1.53976E-6	-71.509493
1.539805E-6	-71.467887
1.53985E-6	-71.489864
1.539895E-6	-71.4752
1.53994E-6	-71.541581
1.539985E-6	-72.553941
1.54003E-6	-75.224447
1.540075E-6	-79.104481
1.54012E-6	-84.661009
1.540165E-6	-86.569855
1.54021E-6	-90.130045
1.540255E-6	-89.649707
1.5403E-6	-86.567884
1.540345E-6	-85.191311
1.54039E-6	-76.718243
1.540435E-6	-73.29105
1.54048E-6	-71.712757
1.540525E-6	-71.335354
1.54057E-6	-71.218805
1.540615E-6	-71.225711
1.54066E-6	-71.080725
1.540705E-6	-71.354889
1.54075E-6	-71.535392
1.540795E-6	-73.171332
1.54084E-6	-77.185121
1.540885E-6	-81.244757
1.54093E-6	-86.103025
1.540975E-6	-90.713993
1.54102E-6	-90.757724
1.541065E-6	-89.50782
1.54111E-6	-86.976691
1.541155E-6	-80.374886
1.5412E-6	-75.018273
1.541245E-6	-72.243168
1.54129E-6	-71.240132
1.541335E-6	-70.842837
1.54138E-6	-70.902301
1.541425E-6	-70.927499
1.54147E-6	-70.923737
1.541515E-6	-70.842309
1.54156E-6	-71.73666
1.541605E-6	-74.034029
1.54165E-6	-79.122186
1.541695E-6	-82.28339
1.54174E-6	-86.888822
1.541785E-6	-87.316561
1.54183E-6	-86.96372
1.541875E-6	-85.855281
1.54192E-6	-87.408842
1.541965E-6	-78.741935
1.54201E-6	-73.139897
1.542055E-6	-71.504577
1.5421E-6	-70.938266
1.542145E-6	-70.869283
1.54219E-6	-70.686438
1.542235E-6	-70.727323
1.54228E-6	-70.672726
1.542325E-6	-70.946899
1.54237E-6	-72.087305
1.542415E-6	-75.176982
1.54246E-6	-79.393022
1.542505E-6	-84.667365
1.54255E-6	-86.395959
1.542595E-6	-95.273898
1.54264E-6	-88.207355
1.542685E-6	-89.986991
1.54273E-6	-82.672847
1.542775E-6	-75.284149
1.54282E-6	-72.29811
1.542865E-6	-70.800333
1.54291E-6	-70.552213
1.542955E-6	-70.558629
1.543E-6	-70.54827
1.543045E-6	-70.66614
1.54309E-6	-70.523703
1.543135E-6	-71.045222
1.54318E-6	-72.58297
1.543225E-6	-77.23768
1.54327E-6	-80.578927
1.543315E-6	-87.011469
1.54336E-6	-89.888526
1.543405E-6	-88.804142
1.54345E-6	-96.777807
1.543495E-6	-87.382615
1.54354E-6	-79.92679
1.543585E-6	-73.975059
1.54363E-6	-71.431503
1.543675E-6	-70.512937
1.54372E-6	-70.384365
1.543765E-6	-70.340461
1.54381E-6	-70.314704
1.543855E-6	-70.449861
1.5439E-6	-70.636371
1.543945E-6	-71.318848
1.54399E-6	-73.638131
1.544035E-6	-78.51089
1.54408E-6	-83.825803
1.544125E-6	-89.344203
1.54417E-6	-90.327329
1.544215E-6	-89.288547
1.54426E-6	-86.252517
1.544305E-6	-84.19189
1.54435E-6	-76.790233
1.544395E-6	-72.718086
1.54444E-6	-70.879906
1.544485E-6	-70.329671
1.54453E-6	-70.267798
1.544575E-6	-70.319375
1.54462E-6	-70.34281
1.544665E-6	-70.368736
1.54471E-6	-70.489541
1.544755E-6	-71.708249
1.5448E-6	-74.899915
1.544845E-6	-79.597934
1.54489E-6	-84.077122
1.544935E-6	-87.198771
1.54498E-6	-83.448616
1.545025E-6	-78.395315
1.54507E-6	-70.93665
1.545115E-6	-57.075224
1.54516E-6	-43.044308
1.545205E-6	-37.833064
1.54525E-6	-35.767541
1.545295E-6	-35.320961
1.54534E-6	-35.241836
1.545385E-6	-35.22011
1.54543E-6	-35.218666
1.545475E-6	-35.600361
1.54552E-6	-37.552282
1.545565E-6	-41.988022
1.54561E-6	-51.6469
1.545655E-6	-61.035289
1.5457E-6	-69.446217
1.545745E-6	-75.30178
1.54579E-6	-78.996295
1.545835E-6	-82.42604
1.54588E-6	-83.304042
1.545925E-6	-79.714287
1.54597E-6	-73.932963
1.546015E-6	-71.379283
1.54606E-6	-70.357404
1.546105E-6	-70.329671
1.54615E-6	-70.225965
1.546195E-6	-70.272419
1.54624E-6	-70.141246
1.546285E-6	-70.280287
1.54633E-6	-71.030331
1.546375E-6	-73.343252
1.54642E-6	-77.574586
1.546465E-6	-82.53288
1.54651E-6	-86.017127
1.546555E-6	-89.34047
1.5466E-6	-87.953375
1.546645E-6	-90.147083
1.54669E-6	-85.442418
1.546735E-6	-78.079904
1.54678E-6	-72.817475
1.546825E-6	-70.87406
1.54687E-6	-70.439277
1.546915E-6	-70.167798
1.54696E-6	-70.202241
1.547005E-6	-70.168249
1.54705E-6	-70.156527
1.547095E-6	-70.366372
1.54714E-6	-71.403814
1.547185E-6	-74.296906
1.54723E-6	-79.168559
1.547275E-6	-82.772016
1.54732E-6	-85.979106
1.547365E-6	-86.983191
1.54741E-6	-91.384656
1.547455E-6	-89.669786
1.5475E-6	-85.75445
1.547545E-6	-75.28855
1.54759E-6	-72.155254
1.547635E-6	-70.9232
1.54768E-6	-70.165993
1.547725E-6	-69.982663
1.54777E-6	-70.210894
1.547815E-6	-70.084195
1.54786E-6	-70.257186
1.547905E-6	-70.48274
1.54795E-6	-71.821703
1.547995E-6	-75.424209
1.54804E-6	-79.812995
1.548085E-6	-84.119525
1.54813E-6	-85.762628
1.548175E-6	-83.731466
1.54822E-6	-108.900841
1.548265E-6	-86.152883
1.54831E-6	-81.977738
1.548355E-6	-74.761235
1.5484E-6	-71.595175
1.548445E-6	-70.418663
1.54849E-6	-70.139452
1.548535E-6	-70.120211
1.54858E-6	-70.089512
1.548625E-6	-70.14349
1.54867E-6	-70.138555
1.548715E-6	-70.675262
1.54876E-6	-72.498003
1.548805E-6	-76.701955
1.54885E-6	-81.247651
1.548895E-6	-85.089186
1.54894E-6	-93.543813
1.548985E-6	-91.356669
1.54903E-6	-88.982529
1.549075E-6	-85.793842
1.54912E-6	-79.775716
1.549165E-6	-73.820566
1.54921E-6	-71.387046
1.549255E-6	-70.265027
1.5493E-6	-70.113073
1.549345E-6	-70.116194
1.54939E-6	-70.13497
1.549435E-6	-70.025262
1.54948E-6	-70.113965
1.549525E-6	-70.779496
1.54957E-6	-73.119363
1.549615E-6	-77.235382
1.54966E-6	-81.209615
1.549705E-6	-85.712175
1.54975E-6	-84.019759
1.549795E-6	-82.493374
1.54984E-6	-74.49894
1.549885E-6	-65.531523
1.54993E-6	-49.726504
1.549975E-6	-39.783973
1.55002E-6	-36.309698
1.550065E-6	-35.236032
1.55011E-6	-35.0515
1.550155E-6	-35.01276
1.5502E-6	-34.992148
1.550245E-6	-35.036239
1.55029E-6	-35.77082
1.550335E-6	-38.620133
1.55038E-6	-44.739193
1.550425E-6	-57.024583
1.55047E-6	-64.388986
1.550515E-6	-70.997968
1.55056E-6	-77.387371
1.550605E-6	-80.529586
1.55065E-6	-82.571178
1.550695E-6	-82.267257
1.55074E-6	-76.458916
1.550785E-6	-72.388242
1.55083E-6	-70.60331
1.550875E-6	-70.061231
1.55092E-6	-69.922522
1.550965E-6	-69.965395
1.55101E-6	-69.986991
1.551055E-6	-70.414361
1.5511E-6	-70.066961
1.551145E-6	-71.239554
1.55119E-6	-74.307432
1.551235E-6	-78.591778
1.55128E-6	-82.868456
1.551325E-6	-88.347557
1.55137E-6	-92.053029
1.551415E-6	-87.883456
1.55146E-6	-81.645631
1.551505E-6	-83.9794
1.55155E-6	-75.683147
1.551595E-6	-71.943632
1.55164E-6	-70.385789
1.551685E-6	-69.905491
1.55173E-6	-69.909743
1.551775E-6	-69.850597
1.55182E-6	-69.884296
1.551865E-6	-69.812995
1.55191E-6	-70.123337
1.551955E-6	-71.639292
1.552E-6	-74.744369
1.552045E-6	-79.132843
1.55209E-6	-85.22011
1.552135E-6	-89.310724
1.55218E-6	-88.674202
1.552225E-6	-91.248229
1.55227E-6	-89.93962
1.552315E-6	-82.732728
1.55236E-6	-74.450265
1.552405E-6	-71.359638
1.55245E-6	-70.085081
1.552495E-6	-69.842212
1.55254E-6	-69.812995
1.552585E-6	-69.863203
1.55263E-6	-69.833845
1.552675E-6	-69.833845
1.55272E-6	-70.222764
1.552765E-6	-71.895658
1.55281E-6	-75.297366
1.552855E-6	-80
1.5529E-6	-85.047333
1.552945E-6	-90.806604
1.55299E-6	-86.163641
1.553035E-6	-87.81202
1.55308E-6	-86.324577
1.553125E-6	-81.013297
1.55317E-6	-73.792395
1.553215E-6	-70.953926
1.55326E-6	-69.909743
1.553305E-6	-69.718356
1.55335E-6	-69.702105
1.553395E-6	-69.694003
1.55344E-6	-69.661743
1.553485E-6	-69.800533
1.55353E-6	-70.165993
1.553575E-6	-72.188193
1.55362E-6	-75.875395
1.553665E-6	-80.962049
1.55371E-6	-85.531523
1.553755E-6	-88.150248
1.5538E-6	-87.567139
1.553845E-6	-92.102783
1.55389E-6	-85.967079
1.553935E-6	-79.888526
1.55398E-6	-73.439018
1.554025E-6	-70.801377
1.55407E-6	-69.858997
1.554115E-6	-69.609827
1.55416E-6	-69.492337
1.554205E-6	-69.582127
1.55425E-6	-69.500071
1.554295E-6	-69.649707
1.55434E-6	-70.223678
1.554385E-6	-72.252641
1.55443E-6	-76.546263
1.554475E-6	-81.463018
1.55452E-6	-86.247023
1.554565E-6	-87.066374
1.55461E-6	-88.107905
1.554655E-6	-91.202162
1.5547E-6	-88.877302
1.554745E-6	-79.812995
1.55479E-6	-72.786841
1.554835E-6	-70.505612
1.55488E-6	-69.694003
1.554925E-6	-69.503944
1.55497E-6	-69.442395
1.555015E-6	-69.442395
1.55506E-6	-69.366666
1.555105E-6	-69.554602
1.55515E-6	-70.283995
1.555195E-6	-72.251182
1.55524E-6	-76.675615
1.555285E-6	-82.181011
1.55533E-6	-88.768019
1.555375E-6	-87.535014
1.55542E-6	-87.503126
1.555465E-6	-90.81236
1.55551E-6	-86.263525
1.555555E-6	-78.119156
1.5556E-6	-72.529768
1.555645E-6	-70.237418
1.55569E-6	-69.578184
1.555735E-6	-69.430951
1.55578E-6	-69.408154
1.555825E-6	-69.480761
1.55587E-6	-69.385475
1.555915E-6	-69.492337
1.55596E-6	-70.238794
1.556005E-6	-72.522775
1.55605E-6	-77.155693
1.556095E-6	-82.318801
1.55614E-6	-86.905828
1.556185E-6	-89.673812
1.55623E-6	-88.38632
1.556275E-6	-91.445414
1.55632E-6	-85.016894
1.556365E-6	-76.746896
1.55641E-6	-72.477978
1.556455E-6	-70.11441
1.5565E-6	-69.453869
1.556545E-6	-69.411945
1.55659E-6	-69.314431
1.556635E-6	-69.344203
1.55668E-6	-69.351678
1.556725E-6	-69.303319
1.55677E-6	-70.254883
1.556815E-6	-72.643213
1.55686E-6	-77.055338
1.556905E-6	-82.346295
1.55695E-6	-87.194216
1.556995E-6	-96.491707
1.55704E-6	-86.850799
1.557085E-6	-91.414027
1.55713E-6	-83.754085
1.557175E-6	-76.647427
1.55722E-6	-72.14101
1.557265E-6	-70.085081
1.55731E-6	-69.492337
1.557355E-6	-69.385475
1.5574E-6	-69.35542
1.557445E-6	-69.370422
1.55749E-6	-69.419538
1.557535E-6	-69.411945
1.55758E-6	-70.39339
1.557625E-6	-73.185778
1.55767E-6	-77.137681
1.557715E-6	-82.662412
1.55776E-6	-85.659104
1.557805E-6	-87.677665
1.55785E-6	-87.75726
1.557895E-6	-90.520764
1.55794E-6	-86.476245
1.557985E-6	-78.024438
1.55803E-6	-72.232262
1.558075E-6	-70.22505
1.55812E-6	-69.538952
1.558165E-6	-69.385475
1.55821E-6	-69.359166
1.558255E-6	-69.400581
1.5583E-6	-69.359166
1.558345E-6	-69.566377
1.55839E-6	-70.355989
1.558435E-6	-73.045183
1.55848E-6	-77.368375
1.558525E-6	-82.966226
1.55857E-6	-87.594508
1.558615E-6	-89.542859
1.55866E-6	-104.049449
1.558705E-6	-88.51089
1.55875E-6	-88.551146
1.558795E-6	-77.966951
1.55884E-6	-72.285595
1.558885E-6	-70.199057
1.55893E-6	-69.609827
1.558975E-6	-69.54677
1.55902E-6	-69.590023
1.559065E-6	-69.554602
1.55911E-6	-69.500071
1.559155E-6	-69.746941
1.5592E-6	-70.565055
1.559245E-6	-73.140792
1.55929E-6	-78.038238
1.559335E-6	-82.056514
1.55938E-6	-85.764265
1.559425E-6	-88.87395
1.55947E-6	-92.4071
1.559515E-6	-89.775716
1.55956E-6	-85.611413
1.559605E-6	-76.247023
1.55965E-6	-72.628869
1.559695E-6	-70.459506
1.55974E-6	-69.92679
1.559785E-6	-69.775716
1.55983E-6	-69.75104
1.559875E-6	-69.771594
1.55992E-6	-69.825493
1.559965E-6	-69.948195
1.56001E-6	-70.94474
1.560055E-6	-73.166827
1.5601E-6	-78.06319
1.560145E-6	-83.77268
1.56019E-6	-86.942188
1.560235E-6	-91.890286
1.56028E-6	-86.569855
1.560325E-6	-88.677403
1.56037E-6	-84.661009
1.560415E-6	-78.894103
1.56046E-6	-72.97311
1.560505E-6	-70.793029
1.56055E-6	-70.216825
1.560595E-6	-70.051552
1.56064E-6	-70.144388
1.560685E-6	-70.117979
1.56073E-6	-70.144388
1.560775E-6	-70.317506
1.56082E-6	-71.159981
1.560865E-6	-73.806979
1.56091E-6	-78.213108
1.560955E-6	-83.225756
1.561E-6	-88.144578
1.561045E-6	-89.150664
1.56109E-6	-93.718155
1.561135E-6	-95.272436
1.56118E-6	-88.344589
1.561225E-6	-79.554602
1.56127E-6	-73.27625
1.561315E-6	-71.347775
1.56136E-6	-70.54827
1.561405E-6	-70.522723
1.56145E-6	-70.518316
1.561495E-6	-70.652491
1.56154E-6	-70.478859
1.561585E-6	-70.618807
1.56163E-6	-71.502122
1.561675E-6	-73.792395
1.56172E-6	-77.991495
1.561765E-6	-82.710784
1.56181E-6	-87.007107
1.561855E-6	-87.804155
1.5619E-6	-90.495378
1.561945E-6	-85.388017
1.56199E-6	-91.274941
1.562035E-6	-80.297926
1.56208E-6	-74.366376
1.562125E-6	-71.88492
1.56217E-6	-71.198154
1.562215E-6	-70.930188
1.56226E-6	-70.959339
1.562305E-6	-70.926962
1.56235E-6	-71.043013
1.562395E-6	-71.120453
1.56244E-6	-71.800614
1.562485E-6	-73.575355
1.56253E-6	-77.662426
1.562575E-6	-81.623484
1.56262E-6	-85.175552
1.562665E-6	-91.037494
1.56271E-6	-95.309147
1.562755E-6	-90.382468
1.5628E-6	-86.732546
1.562845E-6	-81.878892
1.56289E-6	-74.992148
1.562935E-6	-72.575891
1.56298E-6	-71.577029
1.563025E-6	-71.457547
1.56307E-6	-71.458155
1.563115E-6	-71.431503
1.56316E-6	-71.41523
1.563205E-6	-71.560824
1.56325E-6	-72.221384
1.563295E-6	-73.931889
1.56334E-6	-78.213108
1.563385E-6	-82.217764
1.56343E-6	-87.629592
1.563475E-6	-89.562449
1.56352E-6	-89.273825
