Wavelength (nm)	Power (dBm)
1.525E-6	-58.529423
1.525045E-6	-58.53252
1.52509E-6	-59.273825
1.525135E-6	-61.553986
1.52518E-6	-65.850267
1.525225E-6	-70.277046
1.52527E-6	-72.560984
1.525315E-6	-72.903909
1.52536E-6	-72.796753
1.525405E-6	-72.454988
1.52545E-6	-68.965384
1.525495E-6	-62.623304
1.52554E-6	-59.136402
1.525585E-6	-57.617029
1.52563E-6	-57.23998
1.525675E-6	-57.079656
1.52572E-6	-56.90157
1.525765E-6	-56.716204
1.52581E-6	-56.645421
1.525855E-6	-57.196493
1.5259E-6	-59.233596
1.525945E-6	-63.181259
1.52599E-6	-68.71924
1.526035E-6	-71.609621
1.52608E-6	-72.582183
1.526125E-6	-72.395775
1.52617E-6	-72.378468
1.526215E-6	-69.609827
1.52626E-6	-62.367218
1.526305E-6	-58.320922
1.52635E-6	-56.352614
1.526395E-6	-55.813673
1.52644E-6	-55.643149
1.526485E-6	-55.52222
1.52653E-6	-55.450028
1.526575E-6	-55.44546
1.52662E-6	-55.752817
1.526665E-6	-57.281584
1.52671E-6	-60.616805
1.526755E-6	-66.232406
1.5268E-6	-70.566044
1.526845E-6	-72.139588
1.52689E-6	-72.250453
1.526935E-6	-72.326215
1.52698E-6	-70.37536
1.527025E-6	-62.8208
1.52707E-6	-57.700623
1.527115E-6	-55.410601
1.52716E-6	-54.62055
1.527205E-6	-54.411715
1.52725E-6	-54.335625
1.527295E-6	-54.294571
1.52734E-6	-54.236586
1.527385E-6	-54.380642
1.52743E-6	-55.49443
1.527475E-6	-58.623295
1.52752E-6	-63.682519
1.527565E-6	-69.54677
1.52761E-6	-71.844887
1.527655E-6	-72.180293
1.5277E-6	-71.921269
1.527745E-6	-71.216506
1.52779E-6	-64.231981
1.527835E-6	-57.835702
1.52788E-6	-54.830682
1.527925E-6	-53.748934
1.52797E-6	-53.464016
1.528015E-6	-53.404641
1.52806E-6	-53.346066
1.528105E-6	-53.304972
1.52815E-6	-53.362049
1.528195E-6	-54.108326
1.52824E-6	-56.437829
1.528285E-6	-60.908721
1.52833E-6	-67.269987
1.528375E-6	-70.937727
1.52842E-6	-71.894987
1.528465E-6	-71.705676
1.52851E-6	-71.54902
1.528555E-6	-65.705707
1.5286E-6	-58.794261
1.528645E-6	-54.758636
1.52869E-6	-53.146166
1.528735E-6	-52.740884
1.52878E-6	-52.656803
1.528825E-6	-52.620127
1.52887E-6	-52.589272
1.528915E-6	-52.54769
1.52896E-6	-52.994693
1.529005E-6	-54.843911
1.52905E-6	-58.900841
1.529095E-6	-64.653394
1.52914E-6	-69.863203
1.529185E-6	-70.825995
1.52923E-6	-69.92679
1.529275E-6	-66.043242
1.52932E-6	-58.979095
1.529365E-6	-41.8923
1.52941E-6	-33.552661
1.529455E-6	-29.833845
1.5295E-6	-28.350526
1.529545E-6	-28.043771
1.52959E-6	-27.93444
1.529635E-6	-27.8199
1.52968E-6	-27.835702
1.529725E-6	-28.840568
1.52977E-6	-31.929388
1.529815E-6	-39.404366
1.52986E-6	-50.129597
1.529905E-6	-59.613798
1.52995E-6	-64.92279
1.529995E-6	-68.735439
1.53004E-6	-70.170055
1.530085E-6	-69.854795
1.53013E-6	-62.372464
1.530175E-6	-55.991168
1.53022E-6	-53.090954
1.530265E-6	-51.972263
1.53031E-6	-51.753536
1.530355E-6	-51.710824
1.5304E-6	-51.65325
1.530445E-6	-51.586405
1.53049E-6	-51.681302
1.530535E-6	-52.504183
1.53058E-6	-54.895891
1.530625E-6	-59.738755
1.53067E-6	-65.972229
1.530715E-6	-69.779843
1.53076E-6	-70.530567
1.530805E-6	-68.958544
1.53085E-6	-64.007721
1.530895E-6	-53.604139
1.53094E-6	-38.013429
1.530985E-6	-31.828976
1.53103E-6	-28.996295
1.531075E-6	-28.17015
1.53112E-6	-27.994231
1.531165E-6	-27.880789
1.53121E-6	-27.862167
1.531255E-6	-28.093882
1.5313E-6	-29.601894
1.531345E-6	-33.548726
1.53139E-6	-41.548399
1.531435E-6	-52.783542
1.53148E-6	-61.467278
1.531525E-6	-66.197888
1.53157E-6	-69.240882
1.531615E-6	-70.220479
1.53166E-6	-68.184422
1.531705E-6	-59.829667
1.53175E-6	-54.532106
1.531795E-6	-52.183164
1.53184E-6	-51.478251
1.531885E-6	-51.364987
1.53193E-6	-51.42366
1.531975E-6	-51.441176
1.53202E-6	-51.418841
1.532065E-6	-51.617808
1.53211E-6	-52.743333
1.532155E-6	-55.760991
1.5322E-6	-60.820221
1.532245E-6	-67.356545
1.53229E-6	-70.245222
1.532335E-6	-70.200876
1.53238E-6	-68.184422
1.532425E-6	-62.385984
1.53247E-6	-49.829667
1.532515E-6	-36.038007
1.53256E-6	-30.666646
1.532605E-6	-28.572978
1.53265E-6	-28.021683
1.532695E-6	-27.953375
1.53274E-6	-27.956087
1.532785E-6	-28.052082
1.53283E-6	-28.489367
1.532875E-6	-30.371573
1.53292E-6	-35.228787
1.532965E-6	-44.329736
1.53301E-6	-55.774102
1.533055E-6	-62.053726
1.5331E-6	-67.293212
1.533145E-6	-69.542859
1.53319E-6	-70.350336
1.533235E-6	-66.677636
1.53328E-6	-59.255493
1.533325E-6	-54.521023
1.53337E-6	-52.56647
1.533415E-6	-52.010733
1.53346E-6	-51.9382
1.533505E-6	-51.982534
1.53355E-6	-52.03495
1.533595E-6	-52.14955
1.53364E-6	-52.442776
1.533685E-6	-53.82266
1.53373E-6	-57.137681
1.533775E-6	-62.645608
1.53382E-6	-68.642315
1.533865E-6	-70.558135
1.53391E-6	-69.821323
1.533955E-6	-67.253804
1.534E-6	-61.482526
1.534045E-6	-48.027194
1.53409E-6	-35.281218
1.534135E-6	-30.2489
1.53418E-6	-28.365404
1.534225E-6	-27.983298
1.53427E-6	-27.969671
1.534315E-6	-28.091083
1.53436E-6	-28.184422
1.534405E-6	-28.728952
1.53445E-6	-30.941502
1.534495E-6	-36.165437
1.53454E-6	-45.632015
1.534585E-6	-56.609463
1.53463E-6	-62.799234
1.534675E-6	-67.867479
1.53472E-6	-69.842212
1.534765E-6	-70.590355
1.53481E-6	-66.703988
1.534855E-6	-59.821323
1.5349E-6	-55.590909
1.534945E-6	-53.91367
1.53499E-6	-53.494011
1.535035E-6	-53.443814
1.53508E-6	-53.503731
1.535125E-6	-53.520305
1.53517E-6	-53.568435
1.535215E-6	-53.931889
1.53526E-6	-55.489815
1.535305E-6	-59.062282
1.53535E-6	-64.374692
1.535395E-6	-69.574245
1.53544E-6	-70.831777
1.535485E-6	-70.256265
1.53553E-6	-67.10634
1.535575E-6	-61.008911
1.53562E-6	-47.121983
1.535665E-6	-34.918745
1.53571E-6	-30.043209
1.535755E-6	-28.215987
1.5358E-6	-27.840982
1.535845E-6	-27.90217
1.53589E-6	-27.969671
1.535935E-6	-28.127614
1.53598E-6	-28.745187
1.536025E-6	-31.082953
1.53607E-6	-36.991872
1.536115E-6	-47.304871
1.53616E-6	-57.639669
1.536205E-6	-63.634118
1.53625E-6	-68.17015
1.536295E-6	-70.07579
1.53634E-6	-70.799289
1.536385E-6	-67.358908
1.53643E-6	-60.875654
1.536475E-6	-56.763355
1.53652E-6	-55.195619
1.536565E-6	-54.80172
1.53661E-6	-54.750849
1.536655E-6	-54.779472
1.5367E-6	-54.805658
1.536745E-6	-54.858509
1.53679E-6	-55.214335
1.536835E-6	-56.7305
1.53688E-6	-59.948195
1.536925E-6	-65.55799
1.53697E-6	-69.734667
1.537015E-6	-71.05241
1.53706E-6	-70.434954
1.537105E-6	-67.130946
1.53715E-6	-61.099145
1.537195E-6	-47.490923
1.53724E-6	-34.90663
1.537285E-6	-30.131387
1.53733E-6	-28.271053
1.537375E-6	-27.939841
1.53742E-6	-27.899492
1.537465E-6	-27.920965
1.53751E-6	-27.977842
1.537555E-6	-28.563608
1.5376E-6	-30.875122
1.537645E-6	-36.597542
1.53769E-6	-46.689778
1.537735E-6	-57.272304
1.53778E-6	-63.240385
1.537825E-6	-68.029953
1.53787E-6	-70.093948
1.537915E-6	-70.811836
1.53796E-6	-68.610661
1.538005E-6	-61.822364
1.53805E-6	-57.537477
1.538095E-6	-55.81533
1.53814E-6	-55.398542
1.538185E-6	-55.350636
1.53823E-6	-55.326879
1.538275E-6	-55.325399
1.53832E-6	-55.338741
1.538365E-6	-55.654311
1.53841E-6	-57.046529
1.538455E-6	-60.089069
1.5385E-6	-65.428754
1.538545E-6	-69.574245
1.53859E-6	-71.004531
1.538635E-6	-70.569509
1.53868E-6	-68.239087
1.538725E-6	-62.229358
1.53877E-6	-49.013563
1.538815E-6	-35.830268
1.53886E-6	-30.639389
1.538905E-6	-28.620133
1.53895E-6	-28.138916
1.538995E-6	-28.029953
1.53904E-6	-27.980569
1.539085E-6	-27.999707
1.53913E-6	-28.425432
1.539175E-6	-30.475951
1.53922E-6	-35.872036
1.539265E-6	-45.583049
1.53931E-6	-56.5738
1.539355E-6	-62.721336
1.5394E-6	-67.825161
1.539445E-6	-69.97402
1.53949E-6	-70.746879
1.539535E-6	-68.894103
1.53958E-6	-62.020404
1.539625E-6	-57.604503
1.53967E-6	-55.759355
1.539715E-6	-55.237482
1.53976E-6	-55.125788
1.539805E-6	-55.104634
1.53985E-6	-55.07519
1.539895E-6	-55.09901
1.53994E-6	-55.362563
1.539985E-6	-56.643415
1.54003E-6	-59.597934
1.540075E-6	-64.634416
1.54012E-6	-69.641702
1.540165E-6	-70.916759
1.54021E-6	-70.540393
1.540255E-6	-68.560489
1.5403E-6	-63.012037
1.540345E-6	-50.80399
1.54039E-6	-36.332036
1.540435E-6	-31.013297
1.54048E-6	-28.690233
1.540525E-6	-28.06041
1.54057E-6	-27.9129
1.540615E-6	-27.859513
1.54066E-6	-27.859513
1.540705E-6	-28.144578
1.54075E-6	-29.909743
1.540795E-6	-34.676279
1.54084E-6	-43.496925
1.540885E-6	-55.169836
1.54093E-6	-62.4344
1.540975E-6	-67.139929
1.54102E-6	-69.714287
1.541065E-6	-70.592346
1.54111E-6	-69.259153
1.541155E-6	-62.303273
1.5412E-6	-57.459355
1.541245E-6	-55.341712
1.54129E-6	-54.676279
1.541335E-6	-54.538276
1.54138E-6	-54.483061
1.541425E-6	-54.45632
1.54147E-6	-54.453897
1.541515E-6	-54.610494
1.54156E-6	-55.617742
1.541605E-6	-58.428456
1.54165E-6	-63.030324
1.541695E-6	-68.683813
1.54174E-6	-70.633355
1.541785E-6	-70.784696
1.54183E-6	-69.24453
1.541875E-6	-64.068247
1.54192E-6	-53.864753
1.541965E-6	-37.90217
1.54201E-6	-31.760695
1.542055E-6	-29.020489
1.5421E-6	-28.150248
1.542145E-6	-27.964232
1.54219E-6	-27.92635
1.542235E-6	-27.891466
1.54228E-6	-28.027194
1.542325E-6	-29.408154
1.54237E-6	-33.10336
1.542415E-6	-41.020981
1.54246E-6	-51.92871
1.542505E-6	-60.992506
1.54255E-6	-66.011923
1.542595E-6	-69.359166
1.54264E-6	-70.388163
1.542685E-6	-70.070932
1.54273E-6	-63.614109
1.542775E-6	-58.079904
1.54282E-6	-55.215778
1.542865E-6	-54.281748
1.54291E-6	-54.080454
1.542955E-6	-54.05497
1.543E-6	-54.038429
1.543045E-6	-54.009908
1.54309E-6	-54.076012
1.543135E-6	-54.791236
1.54318E-6	-57.020208
1.543225E-6	-61.202162
1.54327E-6	-67.070797
1.543315E-6	-70.198148
1.54336E-6	-70.701725
1.543405E-6	-69.771594
1.54345E-6	-65.499049
1.543495E-6	-58.150248
1.54354E-6	-40.872467
1.543585E-6	-33.132744
1.54363E-6	-29.500071
1.543675E-6	-28.236193
1.54372E-6	-27.999707
1.543765E-6	-27.920965
1.54381E-6	-27.89414
1.543855E-6	-27.942545
1.5439E-6	-28.748442
1.543945E-6	-31.550261
1.54399E-6	-38.273971
1.544035E-6	-48.632794
1.54408E-6	-58.648673
1.544125E-6	-64.246967
1.54417E-6	-68.44664
1.544215E-6	-70.11129
1.54426E-6	-70.464336
1.544305E-6	-65.699249
1.54435E-6	-59.259153
1.544395E-6	-55.463759
1.54444E-6	-54.087127
1.544485E-6	-53.757179
1.54453E-6	-53.708963
1.544575E-6	-53.692671
1.54462E-6	-53.709984
1.544665E-6	-53.72839
1.54471E-6	-54.125135
1.544755E-6	-55.774102
1.5448E-6	-59.492337
1.544845E-6	-64.9485
1.54489E-6	-69.702105
1.544935E-6	-70.733489
1.54498E-6	-70.041894
1.545025E-6	-67.053134
1.54507E-6	-61.094113
1.545115E-6	-47.013652
1.54516E-6	-34.988038
1.545205E-6	-30.189519
1.54525E-6	-28.33866
1.545295E-6	-27.929045
1.54534E-6	-27.851562
1.545385E-6	-27.840982
1.54543E-6	-27.822529
1.545475E-6	-28.265224
1.54552E-6	-30.316105
1.545565E-6	-35.344684
1.54561E-6	-44.780778
1.545655E-6	-55.855281
1.5457E-6	-62.115488
1.545745E-6	-67.335331
1.54579E-6	-69.637705
1.545835E-6	-70.50854
1.54588E-6	-68.632794
1.545925E-6	-61.327093
1.54597E-6	-56.430186
1.546015E-6	-54.317983
1.54606E-6	-53.696738
1.546105E-6	-53.581295
1.54615E-6	-53.564486
1.546195E-6	-53.5635
1.54624E-6	-53.574366
1.546285E-6	-53.739678
1.54633E-6	-54.761235
1.546375E-6	-57.62205
1.54642E-6	-62.389747
1.546465E-6	-68.099486
1.54651E-6	-70.462403
1.546555E-6	-70.506588
1.5466E-6	-69.058784
1.546645E-6	-64.237739
1.54669E-6	-54.027437
1.546735E-6	-38.362425
1.54678E-6	-31.925326
1.546825E-6	-28.951716
1.54687E-6	-28.071539
1.546915E-6	-27.920965
1.54696E-6	-27.880789
1.547005E-6	-27.870138
1.54705E-6	-28.029953
1.547095E-6	-29.175737
1.54714E-6	-32.541448
1.547185E-6	-39.566377
1.54723E-6	-50.778457
1.547275E-6	-60.139452
1.54732E-6	-65.422695
1.547365E-6	-69.062282
1.54741E-6	-70.138555
1.547455E-6	-70.275657
1.5475E-6	-64.280584
1.547545E-6	-58.239087
1.54759E-6	-54.94172
1.547635E-6	-53.815335
1.54768E-6	-53.540867
1.547725E-6	-53.520305
1.54777E-6	-53.519329
1.547815E-6	-53.553645
1.54786E-6	-53.613111
1.547905E-6	-54.115042
1.54795E-6	-55.932895
1.547995E-6	-59.578184
1.54804E-6	-65.471407
1.548085E-6	-69.605859
1.54813E-6	-70.809742
1.548175E-6	-70.053749
1.54822E-6	-66.978856
1.548265E-6	-60.490513
1.54831E-6	-46.188849
1.548355E-6	-34.639468
1.5484E-6	-30.178645
1.548445E-6	-28.419392
1.54849E-6	-28.024438
1.548535E-6	-27.961515
1.54858E-6	-27.94525
1.548625E-6	-27.956087
1.54867E-6	-28.410347
1.548715E-6	-30.493431
1.54876E-6	-35.812017
1.548805E-6	-45.121549
1.54885E-6	-56.315272
1.548895E-6	-62.408612
1.54894E-6	-67.592012
1.548985E-6	-69.767475
1.54903E-6	-70.408632
1.549075E-6	-68.45576
1.54912E-6	-61.174185
1.549165E-6	-56.38461
1.54921E-6	-54.32856
1.549255E-6	-53.677452
1.5493E-6	-53.555614
1.549345E-6	-53.561527
1.54939E-6	-53.56646
1.549435E-6	-53.560541
1.54948E-6	-53.699791
1.549525E-6	-54.659739
1.54957E-6	-57.337683
1.549615E-6	-62.04398
1.54966E-6	-67.833064
1.549705E-6	-70.442161
1.54975E-6	-70.549255
1.549795E-6	-69.226321
1.54984E-6	-64.430947
1.549885E-6	-55.416644
1.54993E-6	-38.934691
1.549975E-6	-32.173124
1.55002E-6	-29.048306
1.550065E-6	-28.077114
1.55011E-6	-27.896815
1.550155E-6	-27.862167
1.5502E-6	-27.851562
1.550245E-6	-27.90217
1.55029E-6	-28.745187
1.550335E-6	-31.632962
1.55038E-6	-38.544928
1.550425E-6	-49.295927
1.55047E-6	-58.833923
1.550515E-6	-64.459957
1.55056E-6	-68.489367
1.550605E-6	-70.106837
1.55065E-6	-70.478374
1.550695E-6	-65.31505
1.55074E-6	-58.982529
1.550785E-6	-55.294425
1.55083E-6	-53.882767
1.550875E-6	-53.545777
1.55092E-6	-53.495953
1.550965E-6	-53.471737
1.55101E-6	-53.444774
1.551055E-6	-53.441895
1.5511E-6	-53.806979
1.551145E-6	-55.335773
1.55119E-6	-58.91435
1.551235E-6	-64.321505
1.55128E-6	-69.299621
1.551325E-6	-70.649464
1.55137E-6	-70.257647
1.551415E-6	-68.294449
1.55146E-6	-62.560984
1.551505E-6	-50.524193
1.55155E-6	-36.300424
1.551595E-6	-31.052963
1.55164E-6	-28.712777
1.551685E-6	-28.127614
1.55173E-6	-28.038238
1.551775E-6	-28.002448
1.55182E-6	-27.966951
1.551865E-6	-28.175853
1.55191E-6	-29.613798
1.551955E-6	-33.619103
1.552E-6	-41.557714
1.552045E-6	-52.531324
1.55209E-6	-61.41102
1.552135E-6	-66.293019
1.55218E-6	-69.385475
1.552225E-6	-70.274732
1.55227E-6	-69.821323
1.552315E-6	-63.018124
1.55236E-6	-57.185121
1.552405E-6	-54.519793
1.55245E-6	-53.575355
1.552495E-6	-53.381873
1.55254E-6	-53.341377
1.552585E-6	-53.328273
1.55263E-6	-53.337629
1.552675E-6	-53.397988
1.55272E-6	-53.984832
1.552765E-6	-56.076548
1.55281E-6	-60.006519
1.552855E-6	-65.961934
1.5529E-6	-69.833845
1.552945E-6	-70.689492
1.55299E-6	-69.952488
1.553035E-6	-66.520848
1.55308E-6	-59.948195
1.553125E-6	-43.64818
1.55317E-6	-34.185055
1.553215E-6	-29.892761
1.55326E-6	-28.300318
1.553305E-6	-27.969671
1.55335E-6	-27.864822
1.553395E-6	-27.822529
1.55344E-6	-27.840982
1.553485E-6	-28.288588
1.55353E-6	-30.336705
1.553575E-6	-35.373026
1.55362E-6	-44.739193
1.553665E-6	-55.826944
1.55371E-6	-61.932775
1.553755E-6	-67.279262
1.5538E-6	-69.590023
1.553845E-6	-70.463369
1.55389E-6	-68.507809
1.553935E-6	-60.995236
1.55398E-6	-56.094181
1.554025E-6	-53.978314
1.55407E-6	-53.328273
1.554115E-6	-53.203904
1.55416E-6	-53.185778
1.554205E-6	-53.163227
1.55425E-6	-53.18397
1.554295E-6	-53.303113
1.55434E-6	-54.165745
1.554385E-6	-56.751005
1.55443E-6	-61.174755
1.554475E-6	-67.267672
1.55452E-6	-70.328734
1.554565E-6	-70.705811
1.55461E-6	-69.438577
1.554655E-6	-65.272436
1.5547E-6	-57.084092
1.554745E-6	-40.451306
1.55479E-6	-32.894596
1.554835E-6	-29.500071
1.55488E-6	-28.329782
1.554925E-6	-28.065971
1.55497E-6	-28.021683
1.555015E-6	-27.991495
1.55506E-6	-28.035475
1.555105E-6	-28.59492
1.55515E-6	-30.996329
1.555195E-6	-36.96372
1.55524E-6	-47.194216
1.555285E-6	-57.428016
1.55533E-6	-63.174037
1.555375E-6	-68.071539
1.55542E-6	-69.788107
1.555465E-6	-70.413883
1.55551E-6	-66.728455
1.555555E-6	-59.783973
1.5556E-6	-55.383514
1.555645E-6	-53.584267
1.55569E-6	-53.098926
1.555735E-6	-53.019865
1.55578E-6	-53.008563
1.555825E-6	-53.019865
1.55587E-6	-53.034689
1.555915E-6	-53.212996
1.55596E-6	-54.284076
1.556005E-6	-57.128704
1.55605E-6	-61.948391
1.556095E-6	-67.972393
1.55614E-6	-70.55468
1.556185E-6	-70.544822
1.55623E-6	-69.226321
1.556275E-6	-64.628108
1.55632E-6	-55.31505
1.556365E-6	-39.0309
1.55641E-6	-32.326215
1.556455E-6	-29.186527
1.5565E-6	-28.167302
1.556545E-6	-27.975117
1.55659E-6	-27.93714
1.556635E-6	-27.93444
1.55668E-6	-27.988761
1.556725E-6	-28.725712
1.55677E-6	-31.5323
1.556815E-6	-38.155925
1.55686E-6	-48.59492
1.556905E-6	-58.332739
1.55695E-6	-63.997897
1.556995E-6	-68.513973
1.55704E-6	-69.901244
1.557085E-6	-70.485168
1.55713E-6	-66.117211
1.557175E-6	-59.336741
1.55722E-6	-55.125788
1.557265E-6	-53.529106
1.55731E-6	-53.100699
1.557355E-6	-53.051317
1.5574E-6	-53.053071
1.557445E-6	-53.056581
1.55749E-6	-53.06361
1.557535E-6	-53.250471
1.55758E-6	-54.453897
1.557625E-6	-57.503126
1.55767E-6	-62.451168
1.557715E-6	-68.356471
1.55776E-6	-70.60331
1.557805E-6	-70.58936
1.55785E-6	-69.277501
1.557895E-6	-64.345064
1.55794E-6	-54.778167
1.557985E-6	-38.847224
1.55803E-6	-32.182446
1.558075E-6	-29.065783
1.55812E-6	-28.065971
1.558165E-6	-27.867479
1.55821E-6	-27.840982
1.558255E-6	-27.833064
1.5583E-6	-27.931741
1.558345E-6	-28.774565
1.55839E-6	-31.781591
1.558435E-6	-38.758219
1.55848E-6	-49.154237
1.558525E-6	-58.651856
1.55857E-6	-64.222785
1.558615E-6	-68.76475
1.55866E-6	-70.054189
1.558705E-6	-70.559123
1.55875E-6	-66.095948
1.558795E-6	-59.325572
1.55884E-6	-55.257837
1.558885E-6	-53.734543
1.55893E-6	-53.32547
1.558975E-6	-53.291977
1.55902E-6	-53.292904
1.559065E-6	-53.285494
1.55911E-6	-53.285494
1.559155E-6	-53.528127
1.5592E-6	-54.696722
1.559245E-6	-57.754669
1.55929E-6	-62.788492
1.559335E-6	-68.410347
1.55938E-6	-70.715529
1.559425E-6	-70.706833
1.55947E-6	-69.076303
1.559515E-6	-64.028535
1.55956E-6	-54.198737
1.559605E-6	-38.175853
1.55965E-6	-31.752886
1.559695E-6	-28.87395
1.55974E-6	-28.002448
1.559785E-6	-27.87546
1.55983E-6	-27.896815
1.559875E-6	-27.939841
1.55992E-6	-28.065971
1.559965E-6	-28.90759
1.56001E-6	-31.71469
1.560055E-6	-38.560489
1.5601E-6	-48.924509
1.560145E-6	-58.817353
1.56019E-6	-64.277094
1.560235E-6	-68.797552
1.56028E-6	-70.161934
1.560325E-6	-70.679323
1.56037E-6	-66.893067
1.560415E-6	-60.093504
1.56046E-6	-55.943122
1.560505E-6	-54.271284
1.56055E-6	-53.883829
1.560595E-6	-53.838397
1.56064E-6	-53.832095
1.560685E-6	-53.862639
1.56073E-6	-53.887016
1.560775E-6	-54.102737
1.56082E-6	-55.221555
1.560865E-6	-58.113527
1.56091E-6	-62.993828
1.560955E-6	-68.486301
1.561E-6	-70.706833
1.561045E-6	-70.82337
1.56109E-6	-69.423339
1.561135E-6	-64.571746
1.56118E-6	-55.551748
1.561225E-6	-39.24453
1.56127E-6	-32.158822
1.561315E-6	-28.897471
1.56136E-6	-27.923656
1.561405E-6	-27.772835
1.56145E-6	-27.796304
1.561495E-6	-27.843624
1.56154E-6	-27.9588
1.561585E-6	-28.732194
1.56163E-6	-31.388242
1.561675E-6	-37.947956
1.56172E-6	-48.167302
1.561765E-6	-58.093882
1.56181E-6	-63.804893
1.561855E-6	-68.642315
1.5619E-6	-70.247061
1.561945E-6	-70.930188
1.56199E-6	-68.768019
1.562035E-6	-61.754837
1.56208E-6	-57.157949
1.562125E-6	-55.310622
1.56217E-6	-54.761235
1.562215E-6	-54.653394
1.56226E-6	-54.659739
1.562305E-6	-54.704413
1.56235E-6	-54.7379
1.562395E-6	-54.89187
1.56244E-6	-55.764265
1.562485E-6	-58.233301
1.56253E-6	-62.554723
1.562575E-6	-68.071539
1.56262E-6	-70.805035
1.562665E-6	-70.982693
1.56271E-6	-70.069166
1.562755E-6	-66.085356
1.5628E-6	-59.115095
1.562845E-6	-42.16025
1.56289E-6	-33.34419
1.562935E-6	-29.347939
1.56298E-6	-27.942545
1.563025E-6	-27.703182
1.56307E-6	-27.754669
1.563115E-6	-27.843624
1.56316E-6	-27.939841
1.563205E-6	-28.458805
1.56325E-6	-30.69051
1.563295E-6	-35.932895
1.56334E-6	-45.885487
1.563385E-6	-56.544302
1.56343E-6	-62.55707
1.563475E-6	-67.856861
