Wavelength (nm)	Power (dBm)
1.525E-6	-58.449678
1.525045E-6	-58.471004
1.52509E-6	-59.150664
1.525135E-6	-61.340082
1.52518E-6	-65.225893
1.525225E-6	-68.745187
1.52527E-6	-69.730584
1.525315E-6	-70.018279
1.52536E-6	-69.871628
1.525405E-6	-69.742846
1.52545E-6	-67.295541
1.525495E-6	-62.354503
1.52554E-6	-59.093893
1.525585E-6	-57.612014
1.52563E-6	-57.221617
1.525675E-6	-57.061956
1.52572E-6	-56.882461
1.525765E-6	-56.728455
1.52581E-6	-56.615435
1.525855E-6	-57.128704
1.5259E-6	-59.086848
1.525945E-6	-62.742517
1.52599E-6	-67.47147
1.526035E-6	-69.476909
1.52608E-6	-69.792245
1.526125E-6	-69.653715
1.52617E-6	-69.476909
1.526215E-6	-67.644716
1.52626E-6	-62.178141
1.526305E-6	-58.256494
1.52635E-6	-56.358244
1.526395E-6	-55.825283
1.52644E-6	-55.670307
1.526485E-6	-55.562678
1.52653E-6	-55.482136
1.526575E-6	-55.440898
1.52662E-6	-55.752817
1.526665E-6	-57.249191
1.52671E-6	-60.401957
1.526755E-6	-65.465288
1.5268E-6	-68.999743
1.526845E-6	-69.629721
1.52689E-6	-69.637705
1.526935E-6	-69.570309
1.52698E-6	-68.303256
1.527025E-6	-62.588484
1.52707E-6	-57.649768
1.527115E-6	-55.374523
1.52716E-6	-54.624327
1.527205E-6	-54.433357
1.52725E-6	-54.355707
1.527295E-6	-54.281748
1.52734E-6	-54.234283
1.527385E-6	-54.403327
1.52743E-6	-55.512937
1.527475E-6	-58.513973
1.52752E-6	-63.110465
1.527565E-6	-67.817271
1.52761E-6	-69.347939
1.527655E-6	-69.480761
1.5277E-6	-69.453869
1.527745E-6	-68.716007
1.52779E-6	-63.746875
1.527835E-6	-57.81202
1.52788E-6	-54.841262
1.527925E-6	-53.752024
1.52797E-6	-53.469805
1.528015E-6	-53.397988
1.52806E-6	-53.357342
1.528105E-6	-53.307761
1.52815E-6	-53.35358
1.528195E-6	-54.104972
1.52824E-6	-56.3865
1.528285E-6	-60.612302
1.52833E-6	-66.094181
1.528375E-6	-68.71924
1.52842E-6	-68.751699
1.528465E-6	-67.675121
1.52851E-6	-63.84576
1.528555E-6	-54.241197
1.5286E-6	-38.495506
1.528645E-6	-32.091521
1.52869E-6	-29.179331
1.528735E-6	-28.323873
1.52878E-6	-28.052082
1.528825E-6	-27.915586
1.52887E-6	-27.81202
1.528915E-6	-28.046539
1.52896E-6	-29.629721
1.529005E-6	-33.779933
1.52905E-6	-42.541448
1.529095E-6	-54.078232
1.52914E-6	-61.487417
1.529185E-6	-65.446982
1.52923E-6	-67.039933
1.529275E-6	-65.089186
1.52932E-6	-58.931295
1.529365E-6	-42.124687
1.52941E-6	-33.691655
1.529455E-6	-29.846402
1.5295E-6	-28.38632
1.529545E-6	-28.06041
1.52959E-6	-27.888795
1.529635E-6	-27.804155
1.52968E-6	-27.830428
1.529725E-6	-28.837244
1.52977E-6	-31.927356
1.529815E-6	-39.270153
1.52986E-6	-49.714287
1.529905E-6	-59.273825
1.52995E-6	-64.10609
1.529995E-6	-66.819367
1.53004E-6	-65.941416
1.530085E-6	-61.477641
1.53013E-6	-48.452718
1.530175E-6	-35.670307
1.53022E-6	-30.731947
1.530265E-6	-28.632794
1.53031E-6	-28.054857
1.530355E-6	-27.92635
1.5304E-6	-27.846268
1.530445E-6	-27.843624
1.53049E-6	-28.239087
1.530535E-6	-30.318441
1.53058E-6	-35.667103
1.530625E-6	-45.425723
1.53067E-6	-56.449318
1.530715E-6	-62.164537
1.53076E-6	-66.07303
1.530805E-6	-66.534514
1.53085E-6	-63.388501
1.530895E-6	-53.823707
1.53094E-6	-38.105097
1.530985E-6	-31.900365
1.53103E-6	-29.055289
1.531075E-6	-28.213108
1.53112E-6	-28.027194
1.531165E-6	-27.942545
1.53121E-6	-27.93714
1.531255E-6	-28.113527
1.5313E-6	-29.605859
1.531345E-6	-33.524214
1.53139E-6	-41.478251
1.531435E-6	-52.775306
1.53148E-6	-61.195294
1.531525E-6	-65.228787
1.53157E-6	-66.827727
1.531615E-6	-65.096201
1.53166E-6	-59.076303
1.531705E-6	-42.272384
1.53175E-6	-33.574366
1.531795E-6	-29.706162
1.53184E-6	-28.213108
1.531885E-6	-27.918275
1.53193E-6	-27.880789
1.531975E-6	-27.848914
1.53202E-6	-27.907532
1.532065E-6	-28.677403
1.53211E-6	-31.35845
1.532155E-6	-37.775437
1.5322E-6	-48.368386
1.532245E-6	-58.116341
1.53229E-6	-63.271635
1.532335E-6	-66.447401
1.53238E-6	-66.13501
1.532425E-6	-61.861522
1.53247E-6	-49.897
1.532515E-6	-36.036263
1.53256E-6	-30.629337
1.532605E-6	-28.458805
1.53265E-6	-27.961515
1.532695E-6	-27.870138
1.53274E-6	-27.843624
1.532785E-6	-27.93714
1.53283E-6	-28.383326
1.532875E-6	-30.277046
1.53292E-6	-35.058454
1.532965E-6	-44.113922
1.53301E-6	-55.497509
1.533055E-6	-62.399547
1.5331E-6	-65.895602
1.533145E-6	-66.819367
1.53319E-6	-64.367563
1.533235E-6	-56.697892
1.53328E-6	-40.323584
1.533325E-6	-32.726214
1.53337E-6	-29.200955
1.533415E-6	-28.046539
1.53346E-6	-27.878124
1.533505E-6	-27.907532
1.53355E-6	-27.975117
1.533595E-6	-28.158766
1.53364E-6	-29.273825
1.533685E-6	-32.549252
1.53373E-6	-39.351678
1.533775E-6	-50.550241
1.53382E-6	-59.775716
1.533865E-6	-64.428539
1.53391E-6	-66.771607
1.533955E-6	-65.823623
1.534E-6	-60.982693
1.534045E-6	-48.273971
1.53409E-6	-35.082182
1.534135E-6	-30.235583
1.53418E-6	-28.271053
1.534225E-6	-27.878124
1.53427E-6	-27.856861
1.534315E-6	-27.956087
1.53436E-6	-28.079904
1.534405E-6	-28.661419
1.53445E-6	-30.808173
1.534495E-6	-35.949953
1.53454E-6	-45.32836
1.534585E-6	-56.360122
1.53463E-6	-62.193227
1.534675E-6	-66.205132
1.53472E-6	-66.815193
1.534765E-6	-63.773716
1.53481E-6	-55.179844
1.534855E-6	-38.748442
1.5349E-6	-31.91384
1.534945E-6	-28.860566
1.53499E-6	-27.90217
1.535035E-6	-27.835702
1.53508E-6	-27.93714
1.535125E-6	-28.041003
1.53517E-6	-28.297383
1.535215E-6	-29.714287
1.53526E-6	-33.40369
1.535305E-6	-40.798767
1.53535E-6	-52.139588
1.535395E-6	-60.953385
1.53544E-6	-65.040396
1.535485E-6	-67.075224
1.53553E-6	-65.738142
1.535575E-6	-60.656531
1.53562E-6	-47.126462
1.535665E-6	-34.964817
1.53571E-6	-30.056388
1.535755E-6	-28.158766
1.5358E-6	-27.804155
1.535845E-6	-27.833064
1.53589E-6	-27.93714
1.535935E-6	-28.057633
1.53598E-6	-28.677403
1.536025E-6	-30.970186
1.53607E-6	-36.794383
1.536115E-6	-46.974526
1.53616E-6	-57.510464
1.536205E-6	-62.809174
1.53625E-6	-66.430186
1.536295E-6	-66.794383
1.53634E-6	-63.574366
1.536385E-6	-54.841262
1.53643E-6	-38.761484
1.536475E-6	-31.906423
1.53652E-6	-28.867253
1.536565E-6	-27.961515
1.53661E-6	-27.899492
1.536655E-6	-27.947956
1.5367E-6	-27.999707
1.536745E-6	-28.213108
1.53679E-6	-29.641702
1.536835E-6	-33.322669
1.53688E-6	-40.991415
1.536925E-6	-52.319542
1.53697E-6	-60.978883
1.537015E-6	-65.065419
1.53706E-6	-67.097427
1.537105E-6	-65.790546
1.53715E-6	-60.748943
1.537195E-6	-47.253804
1.53724E-6	-34.89455
1.537285E-6	-30.089512
1.53733E-6	-28.233301
1.537375E-6	-27.85421
1.53742E-6	-27.827793
1.537465E-6	-27.867479
1.53751E-6	-27.899492
1.537555E-6	-28.480176
1.5376E-6	-30.769115
1.537645E-6	-36.569855
1.53769E-6	-46.546263
1.537735E-6	-57.090754
1.53778E-6	-62.660007
1.537825E-6	-66.280091
1.53787E-6	-66.965879
1.537915E-6	-64.130753
1.53796E-6	-56.118988
1.538005E-6	-39.653715
1.53805E-6	-32.332898
1.538095E-6	-29.020489
1.53814E-6	-27.969671
1.538185E-6	-27.806775
1.53823E-6	-27.796304
1.538275E-6	-27.79369
1.53832E-6	-27.966951
1.538365E-6	-29.186527
1.53841E-6	-32.751509
1.538455E-6	-40.01392
1.5385E-6	-51.438756
1.538545E-6	-60.25028
1.53859E-6	-64.705696
1.538635E-6	-67.066374
1.53868E-6	-66.136794
1.538725E-6	-61.788141
1.53877E-6	-49.150664
1.538815E-6	-35.91082
1.53886E-6	-30.647951
1.538905E-6	-28.591778
1.53895E-6	-28.099486
1.538995E-6	-28.007935
1.53904E-6	-27.956087
1.539085E-6	-27.964232
1.53913E-6	-28.37137
1.539175E-6	-30.433514
1.53922E-6	-35.84359
1.539265E-6	-45.278289
1.53931E-6	-56.324577
1.539355E-6	-62.136746
1.5394E-6	-66.11366
1.539445E-6	-66.991872
1.53949E-6	-64.459957
1.539535E-6	-57.039933
1.53958E-6	-40.450343
1.539625E-6	-32.855026
1.53967E-6	-29.370422
1.539715E-6	-28.164455
1.53976E-6	-27.950665
1.539805E-6	-27.888795
1.53985E-6	-27.840982
1.539895E-6	-27.93444
1.53994E-6	-28.910969
1.539985E-6	-32.115488
1.54003E-6	-39.233596
1.540075E-6	-50.413883
1.54012E-6	-59.562449
1.540165E-6	-64.116162
1.54021E-6	-66.842395
1.540255E-6	-66.395959
1.5403E-6	-62.457281
1.540345E-6	-51.012748
1.54039E-6	-36.280091
1.540435E-6	-31.048538
1.54048E-6	-28.658229
1.540525E-6	-28.013429
1.54057E-6	-27.891466
1.540615E-6	-27.81202
1.54066E-6	-27.798919
1.540705E-6	-28.105097
1.54075E-6	-29.842212
1.540795E-6	-34.590452
1.54084E-6	-43.29847
1.540885E-6	-55.045944
1.54093E-6	-61.992829
1.540975E-6	-65.686362
1.54102E-6	-67.055338
1.541065E-6	-65.322439
1.54111E-6	-59.41574
1.541155E-6	-43.084765
1.5412E-6	-34.018664
1.541245E-6	-30.048476
1.54129E-6	-28.483238
1.541335E-6	-28.127614
1.54138E-6	-28.06041
1.541425E-6	-28.016179
1.54147E-6	-28.01893
1.541515E-6	-28.748442
1.54156E-6	-31.498441
1.541605E-6	-38.127614
1.54165E-6	-48.607508
1.541695E-6	-58.362425
1.54174E-6	-63.449577
1.541785E-6	-66.671577
1.54183E-6	-66.635403
1.541875E-6	-63.337629
1.54192E-6	-53.805936
1.541965E-6	-37.81202
1.54201E-6	-31.616547
1.542055E-6	-28.850556
1.5421E-6	-28.027194
1.542145E-6	-27.862167
1.54219E-6	-27.814645
1.542235E-6	-27.770236
1.54228E-6	-27.92635
1.542325E-6	-29.259153
1.54237E-6	-33.03731
1.542415E-6	-40.911398
1.54246E-6	-51.856858
1.542505E-6	-60.388163
1.54255E-6	-64.769042
1.542595E-6	-66.961562
1.54264E-6	-65.920995
1.542685E-6	-61.211911
1.54273E-6	-48.079904
1.542775E-6	-35.428754
1.54282E-6	-30.540885
1.542865E-6	-28.554258
1.54291E-6	-28.10229
1.542955E-6	-28.024438
1.543E-6	-27.975117
1.543045E-6	-27.950665
1.54309E-6	-28.303256
1.543135E-6	-30.269184
1.54318E-6	-35.285616
1.543225E-6	-44.806972
1.54327E-6	-55.898979
1.543315E-6	-62.571178
1.54336E-6	-65.919297
1.543405E-6	-66.8867
1.54345E-6	-64.545692
1.543495E-6	-57.481185
1.54354E-6	-41.042461
1.543585E-6	-33.25966
1.54363E-6	-29.554602
1.543675E-6	-28.273971
1.54372E-6	-28.007935
1.543765E-6	-27.956087
1.54381E-6	-27.9129
1.543855E-6	-27.953375
1.5439E-6	-28.761484
1.543945E-6	-31.561446
1.54399E-6	-38.167302
1.544035E-6	-48.784402
1.54408E-6	-58.407337
1.544125E-6	-63.42275
1.54417E-6	-66.571827
1.544215E-6	-66.571827
1.54426E-6	-62.982594
1.544305E-6	-53.211176
1.54435E-6	-37.510464
1.544395E-6	-31.526742
1.54444E-6	-28.867253
1.544485E-6	-28.133261
1.54453E-6	-28.007935
1.544575E-6	-27.950665
1.54462E-6	-27.93444
1.544665E-6	-28.096683
1.54471E-6	-29.393022
1.544755E-6	-33.165027
1.5448E-6	-41.02208
1.544845E-6	-52.111955
1.54489E-6	-60.669178
1.544935E-6	-64.956651
1.54498E-6	-66.876111
1.545025E-6	-65.743028
1.54507E-6	-60.745332
1.545115E-6	-47.090754
1.54516E-6	-34.962093
1.545205E-6	-30.275657
1.54525E-6	-28.422411
1.545295E-6	-27.994231
1.54534E-6	-27.93444
1.545385E-6	-27.9129
1.54543E-6	-27.918275
1.545475E-6	-28.315025
1.54552E-6	-30.350807
1.545565E-6	-35.291487
1.54561E-6	-44.80172
1.545655E-6	-55.762628
1.5457E-6	-62.561768
1.545745E-6	-65.880438
1.54579E-6	-66.897316
1.545835E-6	-64.753443
1.54588E-6	-58.687022
1.545925E-6	-41.862189
1.54597E-6	-33.270713
1.546015E-6	-29.469216
1.54606E-6	-28.23041
1.546105E-6	-27.966951
1.54615E-6	-27.907532
1.546195E-6	-27.886124
1.54624E-6	-27.923656
1.546285E-6	-28.620133
1.54633E-6	-31.223983
1.546375E-6	-37.50557
1.54642E-6	-47.744323
1.546465E-6	-57.862167
1.54651E-6	-62.979143
1.546555E-6	-66.542343
1.5466E-6	-66.627405
1.546645E-6	-63.482376
1.54669E-6	-54.161214
1.546735E-6	-38.389316
1.54678E-6	-31.964746
1.546825E-6	-29.108016
1.54687E-6	-28.198741
1.546915E-6	-28.046539
1.54696E-6	-28.016179
1.547005E-6	-27.980569
1.54705E-6	-28.136088
1.547095E-6	-29.240882
1.54714E-6	-32.58612
1.547185E-6	-39.519468
1.54723E-6	-50.835461
1.547275E-6	-59.884296
1.54732E-6	-64.435769
1.547365E-6	-66.834007
1.54741E-6	-66.20332
1.547455E-6	-61.979107
1.5475E-6	-50.264565
1.547545E-6	-35.999804
1.54759E-6	-30.852867
1.547635E-6	-28.560489
1.54768E-6	-28.024438
1.547725E-6	-27.929045
1.54777E-6	-27.896815
1.547815E-6	-27.90485
1.54786E-6	-28.16161
1.547905E-6	-29.673812
1.54795E-6	-33.77061
1.547995E-6	-42.401811
1.54804E-6	-53.983745
1.548085E-6	-61.148085
1.54813E-6	-65.197055
1.548175E-6	-66.981023
1.54822E-6	-65.519123
1.548265E-6	-60.164639
1.54831E-6	-46.307841
1.548355E-6	-34.66355
1.5484E-6	-30.128702
1.548445E-6	-28.374356
1.54849E-6	-27.980569
1.548535E-6	-27.918275
1.54858E-6	-27.920965
1.548625E-6	-27.939841
1.54867E-6	-28.344589
1.548715E-6	-30.427759
1.54876E-6	-35.717032
1.548805E-6	-45.121549
1.54885E-6	-56.043242
1.548895E-6	-62.629665
1.54894E-6	-66.069515
1.548985E-6	-67.015836
1.54903E-6	-64.710833
1.549075E-6	-58.250684
1.54912E-6	-42.055817
1.549165E-6	-33.429441
1.54921E-6	-29.562449
1.549255E-6	-28.113527
1.5493E-6	-27.848914
1.549345E-6	-27.833064
1.54939E-6	-27.809397
1.549435E-6	-27.867479
1.54948E-6	-28.554258
1.549525E-6	-31.050197
1.54957E-6	-37.13319
1.549615E-6	-47.351822
1.54966E-6	-57.288557
1.549705E-6	-62.67124
1.54975E-6	-66.313413
1.549795E-6	-66.759234
1.54984E-6	-63.746875
1.549885E-6	-55.474469
1.54993E-6	-39.19013
1.549975E-6	-32.235894
1.55002E-6	-29.115095
1.550065E-6	-28.110715
1.55011E-6	-27.90485
1.550155E-6	-27.907532
1.5502E-6	-27.9129
1.550245E-6	-27.953375
1.55029E-6	-28.751699
1.550335E-6	-31.563935
1.55038E-6	-38.572978
1.550425E-6	-49.150664
1.55047E-6	-58.598063
1.550515E-6	-63.618104
1.55056E-6	-66.639407
1.550605E-6	-66.516951
1.55065E-6	-62.733543
1.550695E-6	-52.666422
1.55074E-6	-37.128704
1.550785E-6	-31.47398
1.55083E-6	-28.804142
1.550875E-6	-28.04931
1.55092E-6	-27.915586
1.550965E-6	-27.888795
1.55101E-6	-27.878124
1.551055E-6	-27.980569
1.5511E-6	-29.168559
1.551145E-6	-32.550033
1.55119E-6	-39.986991
1.551235E-6	-51.043013
1.55128E-6	-60.044526
1.551325E-6	-64.30509
1.55137E-6	-66.792308
1.551415E-6	-66.183435
1.55146E-6	-62.045371
1.551505E-6	-50.487111
1.55155E-6	-36.362001
1.551595E-6	-30.996329
1.55164E-6	-28.674202
1.551685E-6	-28.065971
1.55173E-6	-27.961515
1.551775E-6	-27.939841
1.55182E-6	-27.918275
1.551865E-6	-28.124793
1.55191E-6	-29.582127
1.551955E-6	-33.528127
1.552E-6	-41.430899
1.552045E-6	-52.143143
1.55209E-6	-60.791986
1.552135E-6	-65.082182
1.55218E-6	-66.948637
1.552225E-6	-65.733261
1.55227E-6	-60.787819
1.552315E-6	-47.627077
1.55236E-6	-35.276825
1.552405E-6	-30.42297
1.55245E-6	-28.443604
1.552495E-6	-28.027194
1.55254E-6	-27.956087
1.552585E-6	-27.920965
1.55263E-6	-27.90217
1.552675E-6	-28.23041
1.55272E-6	-30.002607
1.552765E-6	-34.70698
1.55281E-6	-43.407495
1.552855E-6	-54.981195
1.5529E-6	-61.935487
1.552945E-6	-65.608253
1.55299E-6	-66.970201
1.553035E-6	-65.201369
1.55308E-6	-59.718356
1.553125E-6	-43.73044
1.55317E-6	-34.194171
1.553215E-6	-29.829667
1.55326E-6	-28.265224
1.553305E-6	-27.920965
1.55335E-6	-27.822529
1.553395E-6	-27.77804
1.55344E-6	-27.79369
1.553485E-6	-28.233301
1.55353E-6	-30.291884
1.553575E-6	-35.346171
1.55362E-6	-44.743075
1.553665E-6	-55.627252
1.55371E-6	-62.336615
1.553755E-6	-65.767541
1.5538E-6	-66.880343
1.553845E-6	-64.789927
1.55389E-6	-58.735439
1.553935E-6	-42.127521
1.55398E-6	-33.570411
1.554025E-6	-29.685915
1.55407E-6	-28.326827
1.554115E-6	-28.01893
1.55416E-6	-27.920965
1.554205E-6	-27.888795
1.55425E-6	-27.90485
1.554295E-6	-28.395315
1.55434E-6	-30.593341
1.554385E-6	-36.076548
1.55443E-6	-45.861975
1.554475E-6	-56.532559
1.55452E-6	-61.996954
1.554565E-6	-66.143937
1.55461E-6	-66.85922
1.554655E-6	-64.364003
1.5547E-6	-56.831912
1.554745E-6	-40.584886
1.55479E-6	-32.904756
1.554835E-6	-29.476909
1.55488E-6	-28.309136
1.554925E-6	-28.029953
1.55497E-6	-27.975117
1.555015E-6	-27.950665
1.55506E-6	-27.975117
1.555105E-6	-28.566729
1.55515E-6	-30.964759
1.555195E-6	-36.944337
1.55524E-6	-47.21475
1.555285E-6	-57.210179
1.55533E-6	-62.534436
1.555375E-6	-66.40544
1.55542E-6	-66.742791
1.555465E-6	-63.802807
1.55551E-6	-55.367044
1.555555E-6	-39.273825
1.5556E-6	-32.284125
1.555645E-6	-29.226321
1.55569E-6	-28.215987
1.555735E-6	-27.991495
1.55578E-6	-27.9588
1.555825E-6	-27.939841
1.55587E-6	-27.983298
1.555915E-6	-28.572978
1.55596E-6	-31.134529
1.556005E-6	-37.418418
1.55605E-6	-47.672579
1.556095E-6	-57.718564
1.55614E-6	-62.947351
1.556185E-6	-66.462761
1.55623E-6	-66.811023
1.556275E-6	-63.754085
1.55632E-6	-55.304725
1.556365E-6	-39.027427
1.55641E-6	-32.321024
1.556455E-6	-29.115095
1.5565E-6	-28.127614
1.556545E-6	-27.94525
1.55659E-6	-27.880789
1.556635E-6	-27.915586
1.55668E-6	-27.961515
1.556725E-6	-28.699881
1.55677E-6	-31.464235
1.556815E-6	-38.016179
1.55686E-6	-48.44664
1.556905E-6	-58.04931
1.55695E-6	-63.274404
1.556995E-6	-66.522798
1.55704E-6	-66.813107
1.557085E-6	-63.573377
1.55713E-6	-55.033471
1.557175E-6	-38.982529
1.55722E-6	-32.14101
1.557265E-6	-28.992849
1.55731E-6	-28.002448
1.557355E-6	-27.822529
1.5574E-6	-27.754669
1.557445E-6	-27.770236
1.55749E-6	-27.856861
1.557535E-6	-28.674202
1.55758E-6	-31.52489
1.557625E-6	-38.33866
1.55767E-6	-48.823973
1.557715E-6	-58.23041
1.55776E-6	-63.249553
1.557805E-6	-66.653452
1.55785E-6	-66.836102
1.557895E-6	-63.59618
1.55794E-6	-54.73144
1.557985E-6	-38.800846
1.55803E-6	-32.25483
1.558075E-6	-29.076303
1.55812E-6	-28.032713
1.558165E-6	-27.838341
1.55821E-6	-27.825161
1.558255E-6	-27.846268
1.5583E-6	-27.931741
1.558345E-6	-28.758219
1.55839E-6	-31.703104
1.558435E-6	-38.613816
1.55848E-6	-49.023957
1.558525E-6	-58.486301
1.55857E-6	-63.570411
1.558615E-6	-66.697892
1.55866E-6	-66.846595
1.558705E-6	-63.520305
1.55875E-6	-54.385408
1.558795E-6	-38.557372
1.55884E-6	-31.980478
1.558885E-6	-28.904215
1.55893E-6	-27.94525
1.558975E-6	-27.791078
1.55902E-6	-27.809397
1.559065E-6	-27.804155
1.55911E-6	-27.915586
1.559155E-6	-28.745187
1.5592E-6	-31.537248
1.559245E-6	-38.329782
1.55929E-6	-48.847224
1.559335E-6	-58.326827
1.55938E-6	-63.419886
1.559425E-6	-66.647427
1.55947E-6	-66.79646
1.559515E-6	-63.464981
1.55956E-6	-54.307432
1.559605E-6	-38.443604
1.55965E-6	-31.88425
1.559695E-6	-28.985966
1.55974E-6	-28.105097
1.559785E-6	-27.961515
1.55983E-6	-27.983298
1.559875E-6	-28.029953
1.55992E-6	-28.116341
1.559965E-6	-28.944898
1.56001E-6	-31.870866
1.560055E-6	-38.645493
1.5601E-6	-49.0309
1.560145E-6	-58.639139
1.56019E-6	-63.605135
1.560235E-6	-66.850799
1.56028E-6	-66.88458
1.560325E-6	-63.821613
1.56037E-6	-55.306199
1.560415E-6	-39.34047
1.56046E-6	-32.231536
1.560505E-6	-28.965384
1.56055E-6	-27.986029
1.560595E-6	-27.814645
1.56064E-6	-27.822529
1.560685E-6	-27.888795
1.56073E-6	-28.005191
1.560775E-6	-28.894103
1.56082E-6	-31.733422
1.560865E-6	-38.677403
1.56091E-6	-49.08333
1.560955E-6	-58.53872
1.561E-6	-63.579314
1.561045E-6	-66.798537
1.56109E-6	-67.033348
1.561135E-6	-63.930815
1.56118E-6	-55.422695
1.561225E-6	-39.229957
1.56127E-6	-32.121854
1.561315E-6	-28.941493
1.56136E-6	-27.956087
1.561405E-6	-27.814645
1.56145E-6	-27.835702
1.561495E-6	-27.883456
1.56154E-6	-28.024438
1.561585E-6	-28.745187
1.56163E-6	-31.41523
1.561675E-6	-37.867479
1.56172E-6	-48.204482
1.561765E-6	-57.9129
1.56181E-6	-63.083881
1.561855E-6	-66.714166
1.5619E-6	-67.126462
1.561945E-6	-64.629369
1.56199E-6	-57.300203
1.562035E-6	-40.94474
1.56208E-6	-32.877713
1.562125E-6	-29.24453
1.56217E-6	-28.024438
1.562215E-6	-27.827793
1.56226E-6	-27.859513
1.562305E-6	-27.942545
1.56235E-6	-28.052082
1.562395E-6	-28.610661
1.56244E-6	-30.870344
1.562485E-6	-36.441655
1.56253E-6	-45.972229
1.562575E-6	-56.649435
1.56262E-6	-62.357491
1.562665E-6	-66.409238
1.56271E-6	-67.23998
1.562755E-6	-65.059846
1.5628E-6	-58.951716
1.562845E-6	-42.3114
1.56289E-6	-33.440936
1.562935E-6	-29.430951
1.56298E-6	-28.002448
1.563025E-6	-27.762445
1.56307E-6	-27.817271
1.563115E-6	-27.899492
1.56316E-6	-28.013429
1.563205E-6	-28.501653
1.56325E-6	-30.640899
1.563295E-6	-35.958508
1.56334E-6	-45.713793
1.563385E-6	-56.267201
1.56343E-6	-62.047458
1.563475E-6	-66.305986
