Wavelength (nm)	Power (dBm)
1.525E-6	-49.796387
1.525045E-6	-49.625735
1.52509E-6	-49.523358
1.525135E-6	-49.476909
1.52518E-6	-49.423339
1.525225E-6	-49.314431
1.52527E-6	-49.175737
1.525315E-6	-49.04482
1.52536E-6	-48.931295
1.525405E-6	-48.794261
1.52545E-6	-48.651856
1.525495E-6	-48.425432
1.52554E-6	-48.150248
1.525585E-6	-47.93714
1.52563E-6	-47.780644
1.525675E-6	-47.649768
1.52572E-6	-47.508016
1.525765E-6	-47.366007
1.52581E-6	-47.246886
1.525855E-6	-47.191941
1.5259E-6	-47.235382
1.525945E-6	-47.318903
1.52599E-6	-47.295541
1.526035E-6	-47.212464
1.52608E-6	-47.10411
1.526125E-6	-47.018021
1.52617E-6	-46.920763
1.526215E-6	-46.800616
1.52626E-6	-46.595559
1.526305E-6	-46.27088
1.52635E-6	-45.938006
1.526395E-6	-45.798792
1.52644E-6	-45.665502
1.526485E-6	-45.581478
1.52653E-6	-45.491353
1.526575E-6	-45.374523
1.52662E-6	-45.350636
1.526665E-6	-45.446982
1.52671E-6	-45.58462
1.526755E-6	-45.660702
1.5268E-6	-45.579908
1.526845E-6	-45.52842
1.52689E-6	-45.418156
1.526935E-6	-45.309147
1.52698E-6	-45.208568
1.527025E-6	-45.05011
1.52707E-6	-44.662279
1.527115E-6	-44.364003
1.52716E-6	-44.148778
1.527205E-6	-44.006629
1.52725E-6	-43.926522
1.527295E-6	-43.889143
1.52734E-6	-43.809067
1.527385E-6	-43.775787
1.52743E-6	-43.896593
1.527475E-6	-44.13863
1.52752E-6	-44.317983
1.527565E-6	-44.348608
1.52761E-6	-44.306261
1.527655E-6	-44.234283
1.5277E-6	-44.263163
1.527745E-6	-44.201021
1.52779E-6	-44.029633
1.527835E-6	-43.697756
1.52788E-6	-43.272558
1.527925E-6	-43.032942
1.52797E-6	-42.946495
1.528015E-6	-42.827457
1.52806E-6	-42.84749
1.528105E-6	-42.787666
1.52815E-6	-42.764622
1.528195E-6	-42.913242
1.52824E-6	-43.220282
1.528285E-6	-43.569423
1.52833E-6	-43.678465
1.528375E-6	-43.72839
1.52842E-6	-43.675427
1.528465E-6	-43.665315
1.52851E-6	-43.635121
1.528555E-6	-43.531064
1.5286E-6	-43.262421
1.528645E-6	-42.754784
1.52869E-6	-42.450404
1.528735E-6	-42.338847
1.52878E-6	-42.288537
1.528825E-6	-42.304012
1.52887E-6	-42.300322
1.528915E-6	-42.25556
1.52896E-6	-42.346295
1.529005E-6	-42.702684
1.52905E-6	-43.267026
1.529095E-6	-43.474636
1.52914E-6	-43.529106
1.529185E-6	-43.501785
1.52923E-6	-43.501785
1.529275E-6	-43.512498
1.52932E-6	-43.5164
1.529365E-6	-43.279946
1.52941E-6	-42.744967
1.529455E-6	-42.339591
1.5295E-6	-42.195387
1.529545E-6	-42.147414
1.52959E-6	-42.143143
1.529635E-6	-42.116195
1.52968E-6	-42.127521
1.529725E-6	-42.159536
1.52977E-6	-42.468768
1.529815E-6	-42.986047
1.52986E-6	-43.42275
1.529905E-6	-43.554629
1.52995E-6	-43.585259
1.529995E-6	-43.549709
1.53004E-6	-43.624102
1.530085E-6	-43.540867
1.53013E-6	-43.438059
1.530175E-6	-42.944784
1.53022E-6	-42.465702
1.530265E-6	-42.164537
1.53031E-6	-42.085901
1.530355E-6	-42.072582
1.5304E-6	-42.126104
1.530445E-6	-42.12823
1.53049E-6	-42.14101
1.530535E-6	-42.344805
1.53058E-6	-42.88699
1.530625E-6	-43.406544
1.53067E-6	-43.621102
1.530715E-6	-43.629107
1.53076E-6	-43.641143
1.530805E-6	-43.678465
1.53085E-6	-43.645163
1.530895E-6	-43.609121
1.53094E-6	-43.231236
1.530985E-6	-42.560201
1.53103E-6	-42.236621
1.531075E-6	-42.114074
1.53112E-6	-42.076784
1.531165E-6	-42.076784
1.53121E-6	-42.069084
1.531255E-6	-42.107719
1.5313E-6	-42.229358
1.531345E-6	-42.677671
1.53139E-6	-43.244966
1.531435E-6	-43.625103
1.53148E-6	-43.656235
1.531525E-6	-43.678465
1.53157E-6	-43.684548
1.531615E-6	-43.727366
1.53166E-6	-43.644157
1.531705E-6	-43.412257
1.53175E-6	-42.84749
1.531795E-6	-42.350024
1.53184E-6	-42.177424
1.531885E-6	-42.128939
1.53193E-6	-42.112661
1.531975E-6	-42.102783
1.53202E-6	-42.121854
1.532065E-6	-42.193947
1.53211E-6	-42.487209
1.532155E-6	-43.049563
1.5322E-6	-43.488189
1.532245E-6	-43.693688
1.53229E-6	-43.667336
1.532335E-6	-43.67138
1.53238E-6	-43.712025
1.532425E-6	-43.697756
1.53247E-6	-43.600158
1.532515E-6	-43.125602
1.53256E-6	-42.553159
1.532605E-6	-42.222108
1.53265E-6	-42.14101
1.532695E-6	-42.159536
1.53274E-6	-42.131067
1.532785E-6	-42.148838
1.53283E-6	-42.158108
1.532875E-6	-42.364971
1.53292E-6	-42.817475
1.532965E-6	-43.404641
1.53301E-6	-43.645163
1.533055E-6	-43.661277
1.5331E-6	-43.72327
1.533145E-6	-43.73044
1.53319E-6	-43.680492
1.533235E-6	-43.650192
1.53328E-6	-43.35358
1.533325E-6	-42.856702
1.53337E-6	-42.425281
1.533415E-6	-42.298847
1.53346E-6	-42.306227
1.533505E-6	-42.28339
1.53355E-6	-42.306965
1.533595E-6	-42.321765
1.53364E-6	-42.429838
1.533685E-6	-42.750691
1.53373E-6	-43.250471
1.533775E-6	-43.597174
1.53382E-6	-43.704885
1.533865E-6	-43.699791
1.53391E-6	-43.72327
1.533955E-6	-43.722246
1.534E-6	-43.690639
1.534045E-6	-43.52617
1.53409E-6	-43.195738
1.534135E-6	-42.753965
1.53418E-6	-42.568824
1.534225E-6	-42.556288
1.53427E-6	-42.519671
1.534315E-6	-42.498775
1.53436E-6	-42.526659
1.534405E-6	-42.592427
1.53445E-6	-42.736804
1.534495E-6	-43.13185
1.53454E-6	-43.534002
1.534585E-6	-43.716111
1.53463E-6	-43.758211
1.534675E-6	-43.752024
1.53472E-6	-43.724293
1.534765E-6	-43.72839
1.53481E-6	-43.696738
1.534855E-6	-43.462088
1.5349E-6	-43.075938
1.534945E-6	-42.782718
1.53499E-6	-42.712405
1.535035E-6	-42.701066
1.53508E-6	-42.720523
1.535125E-6	-42.731099
1.53517E-6	-42.756422
1.535215E-6	-42.801717
1.53526E-6	-43.061851
1.535305E-6	-43.451499
1.53535E-6	-43.698774
1.535395E-6	-43.742761
1.53544E-6	-43.748934
1.535485E-6	-43.72327
1.53553E-6	-43.652205
1.535575E-6	-43.202996
1.53562E-6	-37.726276
1.535665E-6	-27.176045
1.53571E-6	-21.878892
1.535755E-6	-19.804683
1.5358E-6	-19.381707
1.535845E-6	-19.370422
1.53589E-6	-19.465374
1.535935E-6	-19.637705
1.53598E-6	-20.166895
1.536025E-6	-22.410881
1.53607E-6	-27.657359
1.536115E-6	-37.223908
1.53616E-6	-42.285595
1.536205E-6	-43.430398
1.53625E-6	-43.637127
1.536295E-6	-43.661277
1.53634E-6	-43.682519
1.536385E-6	-43.65926
1.53643E-6	-43.517376
1.536475E-6	-43.22393
1.53652E-6	-42.966226
1.536565E-6	-42.873503
1.53661E-6	-42.867615
1.536655E-6	-42.879399
1.5367E-6	-42.879399
1.536745E-6	-42.875187
1.53679E-6	-42.908149
1.536835E-6	-43.106911
1.53688E-6	-43.387554
1.536925E-6	-43.583276
1.53697E-6	-43.622102
1.537015E-6	-43.622102
1.53706E-6	-43.581295
1.537105E-6	-43.537924
1.53715E-6	-43.181259
1.537195E-6	-38.944898
1.53724E-6	-27.117508
1.537285E-6	-21.816421
1.53733E-6	-19.645703
1.537375E-6	-19.186527
1.53742E-6	-19.122186
1.537465E-6	-19.186527
1.53751E-6	-19.222688
1.537555E-6	-19.702105
1.5376E-6	-21.877553
1.537645E-6	-27.092978
1.53769E-6	-36.7305
1.537735E-6	-42.048154
1.53778E-6	-43.244966
1.537825E-6	-43.464981
1.53787E-6	-43.491099
1.537915E-6	-43.517376
1.53796E-6	-43.506651
1.538005E-6	-43.382819
1.53805E-6	-43.102473
1.538095E-6	-42.88699
1.53814E-6	-42.79758
1.538185E-6	-42.805858
1.53823E-6	-42.799234
1.538275E-6	-42.795926
1.53832E-6	-42.788492
1.538365E-6	-42.819137
1.53841E-6	-42.989504
1.538455E-6	-43.257821
1.5385E-6	-43.434227
1.538545E-6	-43.482376
1.53859E-6	-43.482376
1.538635E-6	-43.470771
1.53868E-6	-43.427529
1.538725E-6	-43.156934
1.53877E-6	-39.673812
1.538815E-6	-28.093882
1.53886E-6	-22.143143
1.538905E-6	-19.808837
1.53895E-6	-19.24453
1.538995E-6	-19.154237
1.53904E-6	-19.132843
1.539085E-6	-19.118639
1.53913E-6	-19.442395
1.539175E-6	-21.409819
1.53922E-6	-26.307841
1.539265E-6	-35.651119
1.53931E-6	-41.687063
1.539355E-6	-43.135425
1.5394E-6	-43.409399
1.539445E-6	-43.476569
1.53949E-6	-43.49304
1.539535E-6	-43.49207
1.53958E-6	-43.35358
1.539625E-6	-43.073293
1.53967E-6	-42.854188
1.539715E-6	-42.779422
1.53976E-6	-42.765443
1.539805E-6	-42.764622
1.53985E-6	-42.753146
1.539895E-6	-42.754784
1.53994E-6	-42.789317
1.539985E-6	-42.955921
1.54003E-6	-43.23215
1.540075E-6	-43.452461
1.54012E-6	-43.503731
1.540165E-6	-43.518352
1.54021E-6	-43.5164
1.540255E-6	-43.481407
1.5403E-6	-43.262421
1.540345E-6	-41.055178
1.54039E-6	-29.351678
1.540435E-6	-22.771194
1.54048E-6	-20.083753
1.540525E-6	-19.333014
1.54057E-6	-19.182927
1.540615E-6	-19.111554
1.54066E-6	-19.076303
1.540705E-6	-19.344203
1.54075E-6	-21.055178
1.540795E-6	-25.425723
1.54084E-6	-34.222785
1.540885E-6	-41.201589
1.54093E-6	-43.108688
1.540975E-6	-43.470771
1.54102E-6	-43.541849
1.541065E-6	-43.560541
1.54111E-6	-43.545777
1.541155E-6	-43.432312
1.5412E-6	-43.157832
1.541245E-6	-42.892059
1.54129E-6	-42.755603
1.541335E-6	-42.72947
1.54138E-6	-42.713216
1.541425E-6	-42.706732
1.54147E-6	-42.718898
1.541515E-6	-42.742517
1.54156E-6	-42.903909
1.541605E-6	-43.185778
1.54165E-6	-43.460161
1.541695E-6	-43.557584
1.54174E-6	-43.589227
1.541785E-6	-43.589227
1.54183E-6	-43.565473
1.541875E-6	-43.39514
1.54192E-6	-42.077484
1.541965E-6	-31.11652
1.54201E-6	-23.470771
1.542055E-6	-20.397671
1.5421E-6	-19.404366
1.542145E-6	-19.186527
1.54219E-6	-19.111554
1.542235E-6	-19.08333
1.54228E-6	-19.175737
1.542325E-6	-20.387688
1.54237E-6	-23.860525
1.542415E-6	-31.505192
1.54246E-6	-39.888526
1.542505E-6	-42.903061
1.54255E-6	-43.46691
1.542595E-6	-43.574366
1.54264E-6	-43.595186
1.542685E-6	-43.595186
1.54273E-6	-43.523237
1.542775E-6	-43.251389
1.54282E-6	-42.909846
1.542865E-6	-42.734358
1.54291E-6	-42.69137
1.542955E-6	-42.672043
1.543E-6	-42.674454
1.543045E-6	-42.690563
1.54309E-6	-42.69864
1.543135E-6	-42.806687
1.54318E-6	-43.098926
1.543225E-6	-43.435185
1.54327E-6	-43.607128
1.543315E-6	-43.644157
1.54336E-6	-43.645163
1.543405E-6	-43.618104
1.54345E-6	-43.511523
1.543495E-6	-42.870138
1.54354E-6	-34.571746
1.543585E-6	-25.145625
1.54363E-6	-21.01604
1.543675E-6	-19.511699
1.54372E-6	-19.193735
1.543765E-6	-19.143527
1.54381E-6	-19.118639
1.543855E-6	-19.164974
1.5439E-6	-19.897
1.543945E-6	-22.648804
1.54399E-6	-29.132843
1.544035E-6	-38.541823
1.54408E-6	-42.535994
1.544125E-6	-43.471737
1.54417E-6	-43.635121
1.544215E-6	-43.662287
1.54426E-6	-43.675427
1.544305E-6	-43.638131
1.54435E-6	-43.423706
1.544395E-6	-43.030324
1.54444E-6	-42.7597
1.544485E-6	-42.682501
1.54453E-6	-42.678476
1.544575E-6	-42.68653
1.54462E-6	-42.699448
1.544665E-6	-42.702684
1.54471E-6	-42.751509
1.544755E-6	-43.025963
1.5448E-6	-43.420841
1.544845E-6	-43.669357
1.54489E-6	-43.732491
1.544935E-6	-43.72839
1.54498E-6	-43.714067
1.545025E-6	-43.649186
1.54507E-6	-43.34044
1.545115E-6	-39.259153
1.54516E-6	-27.449688
1.545205E-6	-22.048154
1.54525E-6	-19.829667
1.545295E-6	-19.303319
1.54534E-6	-19.248181
1.545385E-6	-19.233596
1.54543E-6	-19.208188
1.545475E-6	-19.562449
1.54552E-6	-21.37809
1.545565E-6	-26.133227
1.54561E-6	-34.89455
1.545655E-6	-41.62033
1.5457E-6	-43.351701
1.545745E-6	-43.673403
1.54579E-6	-43.739678
1.545835E-6	-43.768541
1.54588E-6	-43.769576
1.545925E-6	-43.628106
1.54597E-6	-43.251389
1.546015E-6	-42.908149
1.54606E-6	-42.774483
1.546105E-6	-42.752328
1.54615E-6	-42.751509
1.546195E-6	-42.747419
1.54624E-6	-42.735173
1.546285E-6	-42.764622
1.54633E-6	-42.96107
1.546375E-6	-43.337629
1.54642E-6	-43.678465
1.546465E-6	-43.782008
1.54651E-6	-43.799681
1.546555E-6	-43.8122
1.5466E-6	-43.794476
1.546645E-6	-43.649186
1.54669E-6	-42.500319
1.546735E-6	-32.141721
1.54678E-6	-23.996807
1.546825E-6	-20.607804
1.54687E-6	-19.523358
1.546915E-6	-19.321855
1.54696E-6	-19.270153
1.547005E-6	-19.262816
1.54705E-6	-19.366666
1.547095E-6	-20.40577
1.54714E-6	-23.725317
1.547185E-6	-30.785737
1.54723E-6	-39.597934
1.547275E-6	-43.018995
1.54732E-6	-43.663296
1.547365E-6	-43.819519
1.54741E-6	-43.84576
1.547455E-6	-43.847867
1.5475E-6	-43.77786
1.547545E-6	-43.486251
1.54759E-6	-43.085648
1.547635E-6	-42.851675
1.54768E-6	-42.795099
1.547725E-6	-42.785191
1.54777E-6	-42.795099
1.547815E-6	-42.795926
1.54786E-6	-42.805858
1.547905E-6	-42.920043
1.54795E-6	-43.211176
1.547995E-6	-43.590219
1.54804E-6	-43.810111
1.548085E-6	-43.864753
1.54813E-6	-43.879583
1.548175E-6	-43.870043
1.54822E-6	-43.788237
1.548265E-6	-43.381873
1.54831E-6	-37.344747
1.548355E-6	-26.683703
1.5484E-6	-21.807852
1.548445E-6	-19.854795
1.54849E-6	-19.430951
1.548535E-6	-19.329291
1.54858E-6	-19.30702
1.548625E-6	-19.321855
1.54867E-6	-19.714287
1.548715E-6	-21.685142
1.54876E-6	-26.710091
1.548805E-6	-36.022337
1.54885E-6	-41.970211
1.548895E-6	-43.501785
1.54894E-6	-43.816381
1.548985E-6	-43.866868
1.54903E-6	-43.881705
1.549075E-6	-43.859469
1.54912E-6	-43.699791
1.549165E-6	-43.339503
1.54921E-6	-42.999023
1.549255E-6	-42.848326
1.5493E-6	-42.809174
1.549345E-6	-42.795926
1.54939E-6	-42.814983
1.549435E-6	-42.801717
1.54948E-6	-42.837462
1.549525E-6	-43.009431
1.54957E-6	-43.371478
1.549615E-6	-43.732491
1.54966E-6	-43.866868
1.549705E-6	-43.89127
1.54975E-6	-43.892334
1.549795E-6	-43.84576
1.54984E-6	-43.704885
1.549885E-6	-42.705112
1.54993E-6	-32.807516
1.549975E-6	-24.263163
1.55002E-6	-20.782095
1.550065E-6	-19.566377
1.55011E-6	-19.362914
1.550155E-6	-19.336741
1.5502E-6	-19.321855
1.550245E-6	-19.362914
1.55029E-6	-20.074465
1.550335E-6	-22.870979
1.55038E-6	-29.484616
1.550425E-6	-39.04482
1.55047E-6	-42.803373
1.550515E-6	-43.664306
1.55056E-6	-43.829997
1.550605E-6	-43.860525
1.55065E-6	-43.868985
1.550695E-6	-43.826851
1.55074E-6	-43.583276
1.550785E-6	-43.171332
1.55083E-6	-42.895441
1.550875E-6	-42.794273
1.55092E-6	-42.772838
1.550965E-6	-42.779422
1.55101E-6	-42.776952
1.551055E-6	-42.78107
1.5511E-6	-42.827457
1.551145E-6	-43.090954
1.55119E-6	-43.49984
1.551235E-6	-43.800723
1.55128E-6	-43.872161
1.551325E-6	-43.887016
1.55137E-6	-43.871102
1.551415E-6	-43.819519
1.55146E-6	-43.564486
1.551505E-6	-41.039149
1.55155E-6	-29.104481
1.551595E-6	-22.72947
1.55164E-6	-20.164639
1.551685E-6	-19.503944
1.55173E-6	-19.400581
1.551775E-6	-19.366666
1.55182E-6	-19.366666
1.551865E-6	-19.523358
1.55191E-6	-20.928037
1.551955E-6	-24.881166
1.552E-6	-32.886146
1.552045E-6	-40.778457
1.55209E-6	-43.279021
1.552135E-6	-43.742761
1.55218E-6	-43.838397
1.552225E-6	-43.862639
1.55227E-6	-43.876401
1.552315E-6	-43.778896
1.55236E-6	-43.432312
1.552405E-6	-43.001623
1.55245E-6	-42.776129
1.552495E-6	-42.732728
1.55254E-6	-42.742517
1.552585E-6	-42.740067
1.55263E-6	-42.735173
1.552675E-6	-42.746602
1.55272E-6	-42.852512
1.552765E-6	-43.196645
1.55281E-6	-43.633116
1.552855E-6	-43.84892
1.5529E-6	-43.879583
1.552945E-6	-43.866868
1.55299E-6	-43.859469
1.553035E-6	-43.788237
1.55308E-6	-43.29847
1.553125E-6	-36.786087
1.55317E-6	-26.07303
1.553215E-6	-21.381073
1.55326E-6	-19.554602
1.553305E-6	-19.193735
1.55335E-6	-19.115095
1.553395E-6	-19.072794
1.55344E-6	-19.065783
1.553485E-6	-19.442395
1.55353E-6	-21.375704
1.553575E-6	-26.317131
1.55362E-6	-35.212892
1.553665E-6	-41.678745
1.55371E-6	-43.438059
1.553755E-6	-43.791355
1.5538E-6	-43.859469
1.553845E-6	-43.894463
1.55389E-6	-43.876401
1.553935E-6	-43.706924
1.55398E-6	-43.287346
1.554025E-6	-42.9073
1.55407E-6	-42.74415
1.554115E-6	-42.710784
1.55416E-6	-42.711594
1.554205E-6	-42.69864
1.55425E-6	-42.699448
1.554295E-6	-42.71565
1.55434E-6	-42.901367
1.554385E-6	-43.306831
1.55443E-6	-43.698774
1.554475E-6	-43.867926
1.55452E-6	-43.895528
1.554565E-6	-43.902989
1.55461E-6	-43.894463
1.554655E-6	-43.764406
1.5547E-6	-42.967946
1.554745E-6	-34.136378
1.55479E-6	-24.752146
1.554835E-6	-20.829148
1.55488E-6	-19.500071
1.554925E-6	-19.222688
1.55497E-6	-19.136402
1.555015E-6	-19.132843
1.55506E-6	-19.136402
1.555105E-6	-19.657727
1.55515E-6	-21.996954
1.555195E-6	-27.838341
1.55524E-6	-37.392133
1.555285E-6	-42.335128
1.55533E-6	-43.591212
1.555375E-6	-43.847867
1.55542E-6	-43.892334
1.555465E-6	-43.902989
1.55551E-6	-43.871102
1.555555E-6	-43.633116
1.5556E-6	-43.197552
1.555645E-6	-42.832456
1.55569E-6	-42.701066
1.555735E-6	-42.672847
1.55578E-6	-42.668027
1.555825E-6	-42.660808
1.55587E-6	-42.652002
1.555915E-6	-42.704303
1.55596E-6	-42.918341
1.556005E-6	-43.358283
1.55605E-6	-43.73865
1.556095E-6	-43.883829
1.55614E-6	-43.91367
1.556185E-6	-43.91367
1.55623E-6	-43.883829
1.556275E-6	-43.708963
1.55632E-6	-42.544568
1.556365E-6	-32.025247
1.55641E-6	-23.882767
1.556455E-6	-20.459023
1.5565E-6	-19.370422
1.556545E-6	-19.161392
1.55659E-6	-19.115095
1.556635E-6	-19.129288
1.55668E-6	-19.164974
1.556725E-6	-19.788107
1.55677E-6	-22.383728
1.556815E-6	-28.725712
1.55686E-6	-38.285661
1.556905E-6	-42.628074
1.55695E-6	-43.656235
1.556995E-6	-43.863696
1.55704E-6	-43.895528
1.557085E-6	-43.904056
1.55713E-6	-43.867926
1.557175E-6	-43.623102
1.55722E-6	-43.155137
1.557265E-6	-42.819137
1.55731E-6	-42.699448
1.557355E-6	-42.668027
1.5574E-6	-42.672043
1.557445E-6	-42.676867
1.55749E-6	-42.684112
1.557535E-6	-42.71971
1.55758E-6	-42.947351
1.557625E-6	-43.388501
1.55767E-6	-43.773716
1.557715E-6	-43.915809
1.55776E-6	-43.930815
1.557805E-6	-43.920091
1.55785E-6	-43.883829
1.557895E-6	-43.698774
1.55794E-6	-42.391254
1.557985E-6	-31.510108
1.55803E-6	-23.587242
1.558075E-6	-20.316105
1.55812E-6	-19.24453
1.558165E-6	-19.04482
1.55821E-6	-19.027427
1.558255E-6	-19.062282
1.5583E-6	-19.118639
1.558345E-6	-19.821323
1.55839E-6	-22.611402
1.558435E-6	-28.992849
1.55848E-6	-38.529423
1.558525E-6	-42.650402
1.55857E-6	-43.693688
1.558615E-6	-43.868985
1.55866E-6	-43.901922
1.558705E-6	-43.91795
1.55875E-6	-43.889143
1.558795E-6	-43.658251
1.55884E-6	-43.196645
1.558885E-6	-42.860896
1.55893E-6	-42.749873
1.558975E-6	-42.7417
1.55902E-6	-42.749873
1.559065E-6	-42.74415
1.55911E-6	-42.740067
1.559155E-6	-42.780246
1.5592E-6	-43.012907
1.559245E-6	-43.452461
1.55929E-6	-43.819519
1.559335E-6	-43.936186
1.55938E-6	-43.938337
1.559425E-6	-43.931889
1.55947E-6	-43.91367
1.559515E-6	-43.748934
1.55956E-6	-42.590061
1.559605E-6	-32.126812
1.55965E-6	-23.908326
1.559695E-6	-20.463369
1.55974E-6	-19.329291
1.559785E-6	-19.164974
1.55983E-6	-19.172146
1.559875E-6	-19.208188
1.55992E-6	-19.299621
1.559965E-6	-20.036197
1.56001E-6	-22.843309
1.560055E-6	-29.473061
1.5601E-6	-38.800846
1.560145E-6	-42.795099
1.56019E-6	-43.73044
1.560235E-6	-43.902989
1.56028E-6	-43.950184
1.560325E-6	-43.969639
1.56037E-6	-43.951262
1.560415E-6	-43.727366
1.56046E-6	-43.301255
1.560505E-6	-42.98432
1.56055E-6	-42.887835
1.560595E-6	-42.880241
1.56064E-6	-42.887835
1.560685E-6	-42.873503
1.56073E-6	-42.873503
1.560775E-6	-42.913242
1.56082E-6	-43.128279
1.560865E-6	-43.514448
1.56091E-6	-43.84892
1.560955E-6	-43.963145
1.561E-6	-43.959901
1.561045E-6	-43.967473
1.56109E-6	-43.978314
1.561135E-6	-43.987007
1.56118E-6	-43.955579
1.561225E-6	-43.752024
1.56127E-6	-43.360165
1.561315E-6	-43.054825
1.56136E-6	-42.966226
1.561405E-6	-42.960212
1.56145E-6	-42.955921
1.561495E-6	-42.94992
1.56154E-6	-42.948208
1.561585E-6	-42.998157
1.56163E-6	-43.171332
1.561675E-6	-43.529106
1.56172E-6	-43.841551
1.561765E-6	-43.945872
1.56181E-6	-43.951262
1.561855E-6	-43.968556
1.5619E-6	-43.965308
1.561945E-6	-43.969639
1.56199E-6	-43.936186
1.562035E-6	-43.778896
1.56208E-6	-43.440936
1.562125E-6	-43.142583
1.56217E-6	-43.042557
1.562215E-6	-43.021606
1.56226E-6	-43.0103
1.562305E-6	-43.00249
1.56235E-6	-43.005959
1.562395E-6	-43.045183
1.56244E-6	-43.180355
1.562485E-6	-43.480439
1.56253E-6	-43.785121
1.562575E-6	-43.900856
1.56262E-6	-43.931889
1.562665E-6	-43.941565
1.56271E-6	-43.950184
1.562755E-6	-43.941565
1.5628E-6	-43.91795
1.562845E-6	-43.778896
1.56289E-6	-43.486251
1.562935E-6	-43.207539
1.56298E-6	-43.095381
1.563025E-6	-43.061851
1.56307E-6	-43.058337
1.563115E-6	-43.056581
1.56316E-6	-43.066248
1.563205E-6	-43.082998
1.56325E-6	-43.199366
1.563295E-6	-43.470771
1.56334E-6	-43.746875
1.563385E-6	-43.872161
1.56343E-6	-43.909395
1.563475E-6	-43.909395
