Wavelength (nm)	Power (dBm)
1.525E-6	-75.168408
1.525045E-6	-74.761235
1.52509E-6	-75.029321
1.525135E-6	-77.142177
1.52518E-6	-79.633711
1.525225E-6	-83.405592
1.52527E-6	-84.644527
1.525315E-6	-89.010104
1.52536E-6	-86.451236
1.525405E-6	-88.71924
1.52545E-6	-83.826851
1.525495E-6	-80.144837
1.52554E-6	-76.187044
1.525585E-6	-74.374692
1.52563E-6	-73.733517
1.525675E-6	-73.520305
1.52572E-6	-73.317073
1.525765E-6	-72.943928
1.52581E-6	-72.89375
1.525855E-6	-73.35452
1.5259E-6	-74.643262
1.525945E-6	-78.335699
1.52599E-6	-81.657065
1.526035E-6	-84.677554
1.52608E-6	-84.222785
1.526125E-6	-86.373291
1.52617E-6	-87.178312
1.526215E-6	-85.294425
1.52626E-6	-81.197582
1.526305E-6	-75.446982
1.52635E-6	-72.980005
1.526395E-6	-72.243896
1.52644E-6	-71.923973
1.526485E-6	-72.046067
1.52653E-6	-72.0412
1.526575E-6	-71.872203
1.52662E-6	-71.922621
1.526665E-6	-72.917491
1.52671E-6	-75.846927
1.526755E-6	-79.775716
1.5268E-6	-82.612987
1.526845E-6	-86.569855
1.52689E-6	-87.856861
1.526935E-6	-84.944431
1.52698E-6	-86.515004
1.527025E-6	-81.65961
1.52707E-6	-75.15131
1.527115E-6	-72.260674
1.52716E-6	-71.157712
1.527205E-6	-70.833355
1.52725E-6	-70.802945
1.527295E-6	-70.764451
1.52734E-6	-70.707855
1.527385E-6	-70.639389
1.52743E-6	-71.47459
1.527475E-6	-73.890206
1.52752E-6	-78.604357
1.527565E-6	-82.855026
1.52761E-6	-85.045944
1.527655E-6	-84.843911
1.5277E-6	-89.115095
1.527745E-6	-85.097605
1.52779E-6	-82.43516
1.527835E-6	-75.775743
1.52788E-6	-71.892971
1.527925E-6	-70.303977
1.52797E-6	-69.93534
1.528015E-6	-69.829667
1.52806E-6	-69.718356
1.528105E-6	-69.779843
1.52815E-6	-69.698052
1.528195E-6	-70.200421
1.52824E-6	-71.905076
1.528285E-6	-75.865326
1.52833E-6	-80.28817
1.528375E-6	-83.951262
1.52842E-6	-85.306199
1.528465E-6	-85.540846
1.52851E-6	-86.489771
1.528555E-6	-84.46117
1.5286E-6	-76.478175
1.528645E-6	-71.719849
1.52869E-6	-69.888526
1.528735E-6	-69.20457
1.52878E-6	-69.104481
1.528825E-6	-69.048306
1.52887E-6	-69.020489
1.528915E-6	-68.982529
1.52896E-6	-69.24453
1.529005E-6	-70.581409
1.52905E-6	-73.879583
1.529095E-6	-79.446217
1.52914E-6	-82.253371
1.529185E-6	-86.487837
1.52923E-6	-87.888795
1.529275E-6	-85.550189
1.52932E-6	-84.655931
1.529365E-6	-79.240882
1.52941E-6	-72.469534
1.529455E-6	-69.783973
1.5295E-6	-68.87395
1.529545E-6	-68.588639
1.52959E-6	-68.45576
1.529635E-6	-68.452718
1.52968E-6	-68.458805
1.529725E-6	-68.467951
1.52977E-6	-69.3968
1.529815E-6	-71.947031
1.52986E-6	-76.593576
1.529905E-6	-81.30006
1.52995E-6	-88.712777
1.529995E-6	-85.90405
1.53004E-6	-85.113083
1.530085E-6	-86.948637
1.53013E-6	-81.528594
1.530175E-6	-73.733517
1.53022E-6	-70.124678
1.530265E-6	-68.645493
1.53031E-6	-68.265224
1.530355E-6	-68.204482
1.5304E-6	-68.187282
1.530445E-6	-68.113527
1.53049E-6	-68.057633
1.530535E-6	-68.683813
1.53058E-6	-70.381045
1.530625E-6	-74.881166
1.53067E-6	-78.551146
1.530715E-6	-84.148778
1.53076E-6	-87.108572
1.530805E-6	-87.814645
1.53085E-6	-86.243364
1.530895E-6	-83.943718
1.53094E-6	-75.456125
1.530985E-6	-70.886293
1.53103E-6	-68.728952
1.531075E-6	-68.121974
1.53112E-6	-67.994231
1.531165E-6	-67.94525
1.53121E-6	-67.886124
1.531255E-6	-67.910215
1.5313E-6	-68.285661
1.531345E-6	-69.625735
1.53139E-6	-72.411638
1.531435E-6	-78.297383
1.53148E-6	-82.53911
1.531525E-6	-85.069604
1.53157E-6	-86.237881
1.531615E-6	-84.508741
1.53166E-6	-84.898573
1.531705E-6	-78.880657
1.53175E-6	-72.097852
1.531795E-6	-69.259153
1.53184E-6	-68.133261
1.531885E-6	-67.977842
1.53193E-6	-67.94525
1.531975E-6	-67.961515
1.53202E-6	-67.996968
1.532065E-6	-68.124793
1.53211E-6	-68.904215
1.532155E-6	-71.047985
1.5322E-6	-75.665502
1.532245E-6	-80.484197
1.53229E-6	-84.546929
1.532335E-6	-86.367642
1.53238E-6	-85.257837
1.532425E-6	-87.522722
1.53247E-6	-81.838913
1.532515E-6	-73.813245
1.53256E-6	-70.27612
1.532605E-6	-68.572978
1.53265E-6	-68.184422
1.532695E-6	-68.005191
1.53274E-6	-67.977842
1.532785E-6	-68.013429
1.53283E-6	-68.136088
1.532875E-6	-68.623295
1.53292E-6	-70.206793
1.532965E-6	-73.834195
1.53301E-6	-78.699881
1.533055E-6	-83.210266
1.5331E-6	-84.76774
1.533145E-6	-84.989407
1.53319E-6	-87.999707
1.533235E-6	-84.820128
1.53328E-6	-78.133261
1.533325E-6	-72.115488
1.53337E-6	-69.542859
1.533415E-6	-68.78112
1.53346E-6	-68.544928
1.533505E-6	-68.548036
1.53355E-6	-68.591778
1.533595E-6	-68.699881
1.53364E-6	-68.897471
1.533685E-6	-69.97402
1.53373E-6	-72.432878
1.533775E-6	-78.016179
1.53382E-6	-82.006595
1.533865E-6	-85.58462
1.53391E-6	-83.959901
1.533955E-6	-87.657359
1.534E-6	-86.753061
1.534045E-6	-82.02594
1.53409E-6	-74.575481
1.534135E-6	-70.979427
1.53418E-6	-69.698052
1.534225E-6	-69.292235
1.53427E-6	-69.215432
1.534315E-6	-69.255493
1.53436E-6	-69.35542
1.534405E-6	-69.408154
1.53445E-6	-69.918258
1.534495E-6	-71.621591
1.53454E-6	-75.73977
1.534585E-6	-79.897
1.53463E-6	-84.212462
1.534675E-6	-85.386516
1.53472E-6	-84.427335
1.534765E-6	-86.663512
1.53481E-6	-84.177093
1.534855E-6	-78.344589
1.5349E-6	-72.772838
1.534945E-6	-70.646439
1.53499E-6	-70.097944
1.535035E-6	-69.943906
1.53508E-6	-70.046281
1.535125E-6	-69.986991
1.53517E-6	-70.06079
1.535215E-6	-70.283531
1.53526E-6	-71.246493
1.535305E-6	-74.214754
1.53535E-6	-79.069287
1.535395E-6	-84.336804
1.53544E-6	-85.702477
1.535485E-6	-86.208759
1.53553E-6	-85.872036
1.535575E-6	-86.208759
1.53562E-6	-82.958495
1.535665E-6	-75.364056
1.53571E-6	-72.353009
1.535755E-6	-70.972359
1.5358E-6	-70.662597
1.535845E-6	-70.692037
1.53589E-6	-70.72373
1.535935E-6	-70.71297
1.53598E-6	-70.72527
1.536025E-6	-71.223983
1.53607E-6	-73.154239
1.536115E-6	-77.263044
1.53616E-6	-81.429088
1.536205E-6	-85.887171
1.53625E-6	-87.46662
1.536295E-6	-86.530605
1.53634E-6	-87.602002
1.536385E-6	-86.001533
1.53643E-6	-79.34047
1.536475E-6	-73.866868
1.53652E-6	-72.007973
1.536565E-6	-71.169635
1.53661E-6	-71.159981
1.536655E-6	-71.19015
1.5367E-6	-71.308857
1.536745E-6	-71.258082
1.53679E-6	-71.480693
1.536835E-6	-72.623304
1.53688E-6	-75.124374
1.536925E-6	-78.941493
1.53697E-6	-82.359734
1.537015E-6	-86.53647
1.53706E-6	-86.024076
1.537105E-6	-85.353614
1.53715E-6	-85.759355
1.537195E-6	-82.367967
1.53724E-6	-76.358244
1.537285E-6	-73.186683
1.53733E-6	-71.83825
1.537375E-6	-71.619069
1.53742E-6	-71.592668
1.537465E-6	-71.525507
1.53751E-6	-71.547779
1.537555E-6	-71.589535
1.5376E-6	-72.14101
1.537645E-6	-73.689623
1.53769E-6	-77.437635
1.537735E-6	-81.384656
1.53778E-6	-84.570502
1.537825E-6	-87.447275
1.53787E-6	-86.090649
1.537915E-6	-86.006725
1.53796E-6	-85.0515
1.538005E-6	-80.262719
1.53805E-6	-74.87449
1.538095E-6	-72.332898
1.53814E-6	-71.819722
1.538185E-6	-71.726307
1.53823E-6	-71.709537
1.538275E-6	-71.778319
1.53832E-6	-71.643094
1.538365E-6	-71.794702
1.53841E-6	-72.840802
1.538455E-6	-75.497509
1.5385E-6	-78.761484
1.538545E-6	-83.663296
1.53859E-6	-84.649592
1.538635E-6	-86.581699
1.53868E-6	-86.516951
1.538725E-6	-85.649524
1.53877E-6	-82.372464
1.538815E-6	-76.530605
1.53886E-6	-73.365818
1.538905E-6	-72.040505
1.53895E-6	-71.779628
1.538995E-6	-71.507035
1.53904E-6	-71.624747
1.539085E-6	-71.630433
1.53913E-6	-71.627273
1.539175E-6	-72.069084
1.53922E-6	-73.873221
1.539265E-6	-77.377863
1.53931E-6	-81.492313
1.539355E-6	-85.276825
1.5394E-6	-87.452103
1.539445E-6	-84.237739
1.53949E-6	-85.386516
1.539535E-6	-85.368539
1.53958E-6	-80.791986
1.539625E-6	-74.638205
1.53967E-6	-72.632052
1.539715E-6	-71.767214
1.53976E-6	-71.469714
1.539805E-6	-71.430899
1.53985E-6	-71.430296
1.539895E-6	-71.317083
1.53994E-6	-71.533537
1.539985E-6	-72.619333
1.54003E-6	-75.96022
1.540075E-6	-78.604357
1.54012E-6	-83.172234
1.540165E-6	-85.728386
1.54021E-6	-84.641997
1.540255E-6	-86.110112
1.5403E-6	-80.660574
1.540345E-6	-84.886515
1.54039E-6	-77.2262
1.540435E-6	-73.217548
1.54048E-6	-71.809828
1.540525E-6	-71.345407
1.54057E-6	-71.349553
1.540615E-6	-71.199299
1.54066E-6	-71.137349
1.540705E-6	-71.254602
1.54075E-6	-71.472761
1.540795E-6	-73.198459
1.54084E-6	-76.736641
1.540885E-6	-80.544822
1.54093E-6	-82.931969
1.540975E-6	-85.953373
1.54102E-6	-85.147046
1.541065E-6	-85.767541
1.54111E-6	-85.347659
1.541155E-6	-81.531065
1.5412E-6	-74.713404
1.541245E-6	-72.257751
1.54129E-6	-71.274941
1.541335E-6	-71.013845
1.54138E-6	-71.07349
1.541425E-6	-70.935033
1.54147E-6	-70.906045
1.541515E-6	-71.034187
1.54156E-6	-71.485582
1.541605E-6	-73.854191
1.54165E-6	-78.344589
1.541695E-6	-82.171692
1.54174E-6	-85.431787
1.541785E-6	-84.89321
1.54183E-6	-85.795491
1.541875E-6	-120
1.54192E-6	-80.281214
1.541965E-6	-77.070797
1.54201E-6	-73.49304
1.542055E-6	-71.395422
1.5421E-6	-70.840201
1.542145E-6	-70.764451
1.54219E-6	-70.700194
1.542235E-6	-70.763934
1.54228E-6	-70.749459
1.542325E-6	-71.066822
1.54237E-6	-71.964746
1.542415E-6	-74.853195
1.54246E-6	-78.790972
1.542505E-6	-82.831623
1.54255E-6	-85.224447
1.542595E-6	-83.653212
1.54264E-6	-86.840297
1.542685E-6	-85.147046
1.54273E-6	-81.828314
1.542775E-6	-75.460704
1.54282E-6	-72.168113
1.542865E-6	-70.926424
1.54291E-6	-70.572481
1.542955E-6	-70.401004
1.543E-6	-70.531549
1.543045E-6	-70.588863
1.54309E-6	-70.502198
1.543135E-6	-70.914078
1.54318E-6	-72.7597
1.543225E-6	-76.183435
1.54327E-6	-80.221393
1.543315E-6	-83.396089
1.54336E-6	-87.033348
1.543405E-6	-86.79646
1.54345E-6	-85.448505
1.543495E-6	-85.174122
1.54354E-6	-79.850597
1.543585E-6	-73.929741
1.54363E-6	-71.434524
1.543675E-6	-70.512448
1.54372E-6	-70.310503
1.543765E-6	-70.425843
1.54381E-6	-70.396719
1.543855E-6	-70.323584
1.5439E-6	-70.473528
1.543945E-6	-71.259243
1.54399E-6	-73.397988
1.544035E-6	-77.929045
1.54408E-6	-81.643094
1.544125E-6	-86.434006
1.54417E-6	-84.762535
1.544215E-6	-88.642315
1.54426E-6	-85.218666
1.544305E-6	-83.306831
1.54435E-6	-76.831912
1.544395E-6	-72.866775
1.54444E-6	-70.90658
1.544485E-6	-70.464819
1.54453E-6	-70.366372
1.544575E-6	-70.360234
1.54462E-6	-70.27057
1.544665E-6	-70.259491
1.54471E-6	-70.469655
1.544755E-6	-71.770478
1.5448E-6	-74.787311
1.544845E-6	-78.551146
1.54489E-6	-82.727842
1.544935E-6	-82.504956
1.54498E-6	-82.692177
1.545025E-6	-78.712777
1.54507E-6	-71.159981
1.545115E-6	-58.121974
1.54516E-6	-43.361107
1.545205E-6	-37.920965
1.54525E-6	-35.772461
1.545295E-6	-35.28855
1.54534E-6	-35.215778
1.545385E-6	-35.175552
1.54543E-6	-35.181276
1.545475E-6	-35.514483
1.54552E-6	-37.382615
1.545565E-6	-41.72114
1.54561E-6	-50.908185
1.545655E-6	-62.479516
1.5457E-6	-69.017025
1.545745E-6	-74.548166
1.54579E-6	-79.75104
1.545835E-6	-81.56269
1.54588E-6	-82.214147
1.545925E-6	-79.817157
1.54597E-6	-73.996807
1.546015E-6	-71.326504
1.54606E-6	-70.447453
1.546105E-6	-70.257647
1.54615E-6	-70.245682
1.546195E-6	-70.301184
1.54624E-6	-70.205882
1.546285E-6	-70.395292
1.54633E-6	-71.136785
1.546375E-6	-73.026835
1.54642E-6	-77.442452
1.546465E-6	-80.557642
1.54651E-6	-83.670368
1.546555E-6	-82.806687
1.5466E-6	-80.221393
1.546645E-6	-74.22738
1.54669E-6	-64.932245
1.546735E-6	-49.321855
1.54678E-6	-39.706162
1.546825E-6	-36.420652
1.54687E-6	-35.382014
1.546915E-6	-35.168408
1.54696E-6	-35.125788
1.547005E-6	-35.135695
1.54705E-6	-35.243288
1.547095E-6	-36.239708
1.54714E-6	-39.465374
1.547185E-6	-46.088884
1.54723E-6	-58.054857
1.547275E-6	-65.395532
1.54732E-6	-71.7399
1.547365E-6	-77.328283
1.54741E-6	-80.398623
1.547455E-6	-82.863415
1.5475E-6	-80.972902
1.547545E-6	-76.043242
1.54759E-6	-71.968844
1.547635E-6	-70.591848
1.54768E-6	-70.14933
1.547725E-6	-70.119318
1.54777E-6	-70.141695
1.547815E-6	-70.275195
1.54786E-6	-70.213631
1.547905E-6	-70.476435
1.54795E-6	-71.878892
1.547995E-6	-75.101821
1.54804E-6	-79.476909
1.548085E-6	-81.594548
1.54813E-6	-83.078584
1.548175E-6	-81.979792
1.54822E-6	-77.075224
1.548265E-6	-70.345631
1.54831E-6	-56.169031
1.548355E-6	-42.667225
1.5484E-6	-37.564659
1.548445E-6	-35.632015
1.54849E-6	-35.142786
1.548535E-6	-35.057062
1.54858E-6	-35.037625
1.548625E-6	-35.066814
1.54867E-6	-35.457651
1.548715E-6	-37.401673
1.54876E-6	-41.902383
1.548805E-6	-51.56269
1.54885E-6	-60.999061
1.548895E-6	-69.366666
1.54894E-6	-74.92684
1.548985E-6	-79.041335
1.54903E-6	-81.668529
1.549075E-6	-82.158822
1.54912E-6	-79.344203
1.549165E-6	-73.857357
1.54921E-6	-71.256922
1.549255E-6	-70.46192
1.5493E-6	-70.158779
1.549345E-6	-70.088626
1.54939E-6	-70.131835
1.549435E-6	-70.154727
1.54948E-6	-70.125572
1.549525E-6	-70.720141
1.54957E-6	-72.974833
1.549615E-6	-77.095202
1.54966E-6	-80.020024
1.549705E-6	-82.424521
1.54975E-6	-82.83329
1.549795E-6	-81.229167
1.54984E-6	-74.474535
1.549885E-6	-65.893915
1.54993E-6	-50.220936
1.549975E-6	-40.037949
1.55002E-6	-36.38461
1.550065E-6	-35.260753
1.55011E-6	-35.015516
1.550155E-6	-34.986668
1.5502E-6	-34.992148
1.550245E-6	-35.005879
1.55029E-6	-35.702477
1.550335E-6	-38.458805
1.55038E-6	-44.339162
1.550425E-6	-56.482037
1.55047E-6	-63.870043
1.550515E-6	-70.713993
1.55056E-6	-76.751005
1.550605E-6	-79.961088
1.55065E-6	-82.518895
1.550695E-6	-81.11259
1.55074E-6	-76.369524
1.550785E-6	-72.413909
1.55083E-6	-70.523213
1.550875E-6	-70.067402
1.55092E-6	-70.016535
1.550965E-6	-70.042332
1.55101E-6	-69.97402
1.551055E-6	-69.995659
1.5511E-6	-70.191334
1.551145E-6	-71.206747
1.55119E-6	-73.906191
1.551235E-6	-78.4649
1.55128E-6	-83.854191
1.551325E-6	-85.225893
1.55137E-6	-85.262212
1.551415E-6	-83.911532
1.55146E-6	-84.73144
1.551505E-6	-84.059391
1.55155E-6	-75.529971
1.551595E-6	-71.940915
1.55164E-6	-70.411495
1.551685E-6	-70.025699
1.55173E-6	-69.812995
1.551775E-6	-69.767475
1.55182E-6	-69.884296
1.551865E-6	-69.755143
1.55191E-6	-70.105947
1.551955E-6	-71.372129
1.552E-6	-74.621809
1.552045E-6	-78.651856
1.55209E-6	-83.444774
1.552135E-6	-84.803032
1.55218E-6	-85.851937
1.552225E-6	-84.544455
1.55227E-6	-84.930893
1.552315E-6	-81.030331
1.55236E-6	-74.845236
1.552405E-6	-71.450263
1.55245E-6	-70.269646
1.552495E-6	-69.821323
1.55254E-6	-69.854795
1.552585E-6	-69.792245
1.55263E-6	-69.788107
1.552675E-6	-69.714287
1.55272E-6	-70.156978
1.552765E-6	-71.780936
1.55281E-6	-75.31505
1.552855E-6	-79.523358
1.5529E-6	-83.510548
1.552945E-6	-83.776823
1.55299E-6	-83.81429
1.553035E-6	-84.971634
1.55308E-6	-85.431787
1.553125E-6	-80.706322
1.55317E-6	-73.849974
1.553215E-6	-71.010007
1.55326E-6	-70.007824
1.553305E-6	-69.685915
1.55335E-6	-69.637705
1.553395E-6	-69.718356
1.55344E-6	-69.54677
1.553485E-6	-69.637705
1.55353E-6	-70.12736
1.553575E-6	-71.959288
1.55362E-6	-75.800443
1.553665E-6	-80.257647
1.55371E-6	-83.935111
1.553755E-6	-86.708056
1.5538E-6	-84.131877
1.553845E-6	-83.965308
1.55389E-6	-83.773716
1.553935E-6	-79.574245
1.55398E-6	-73.316141
1.554025E-6	-70.752556
1.55407E-6	-69.892761
1.554115E-6	-69.625735
1.55416E-6	-69.625735
1.554205E-6	-69.558524
1.55425E-6	-69.649707
1.554295E-6	-69.613798
1.55434E-6	-70.151578
1.554385E-6	-72.31214
1.55443E-6	-75.949953
1.554475E-6	-80.152027
1.55452E-6	-84.387793
1.554565E-6	-84.449056
1.55461E-6	-86.025815
1.554655E-6	-87.918275
1.5547E-6	-86.131445
1.554745E-6	-78.904215
1.55479E-6	-73.10336
1.554835E-6	-70.558629
1.55488E-6	-69.746941
1.554925E-6	-69.438577
1.55497E-6	-69.419538
1.555015E-6	-69.427144
1.55506E-6	-69.370422
1.555105E-6	-69.503944
1.55515E-6	-70.201786
1.555195E-6	-72.385232
1.55524E-6	-76.482037
1.555285E-6	-81.507035
1.55533E-6	-83.964226
1.555375E-6	-85.499049
1.55542E-6	-85.191311
1.555465E-6	-85.113083
1.55551E-6	-84.186193
1.555555E-6	-78.22175
1.5556E-6	-72.590849
1.555645E-6	-70.347042
1.55569E-6	-69.554602
1.555735E-6	-69.423339
1.55578E-6	-69.476909
1.555825E-6	-69.366666
1.55587E-6	-69.381707
1.555915E-6	-69.400581
1.55596E-6	-70.21135
1.556005E-6	-72.358986
1.55605E-6	-76.757175
1.556095E-6	-80.683896
1.55614E-6	-83.653212
1.556185E-6	-85.214335
1.55623E-6	-85.767541
1.556275E-6	-84.473318
1.55632E-6	-83.196645
1.556365E-6	-76.560009
1.55641E-6	-72.357491
1.556455E-6	-70.209071
1.5565E-6	-69.446217
1.556545E-6	-69.359166
1.55659E-6	-69.303319
1.556635E-6	-69.266483
1.55668E-6	-69.3968
1.556725E-6	-69.419538
1.55677E-6	-70.196784
1.556815E-6	-72.628869
1.55686E-6	-77.221617
1.556905E-6	-81.206174
1.55695E-6	-85.117314
1.556995E-6	-84.982563
1.55704E-6	-84.478187
1.557085E-6	-84.025242
1.55713E-6	-83.820566
1.557175E-6	-77.137681
1.55722E-6	-72.105603
1.557265E-6	-70.098832
1.55731E-6	-69.484616
1.557355E-6	-69.35542
1.5574E-6	-69.366666
1.557445E-6	-69.321855
1.55749E-6	-69.284862
1.557535E-6	-69.404366
1.55758E-6	-70.24798
1.557625E-6	-72.740884
1.55767E-6	-77.710866
1.557715E-6	-81.540342
1.55776E-6	-85.877075
1.557805E-6	-84.271284
1.55785E-6	-87.092978
1.557895E-6	-86.619421
1.55794E-6	-83.628106
1.557985E-6	-76.307841
1.55803E-6	-72.259212
1.558075E-6	-70.121997
1.55812E-6	-69.492337
1.558165E-6	-69.438577
1.55821E-6	-69.457701
1.558255E-6	-69.535048
1.5583E-6	-69.3968
1.558345E-6	-69.613798
1.55839E-6	-70.353162
1.558435E-6	-72.672847
1.55848E-6	-77.347104
1.558525E-6	-81.370938
1.55857E-6	-84.87449
1.558615E-6	-86.133227
1.55866E-6	-85.846927
1.558705E-6	-84.87983
1.55875E-6	-84.518564
1.558795E-6	-76.777807
1.55884E-6	-72.521999
1.558885E-6	-70.240171
1.55893E-6	-69.677843
1.558975E-6	-69.554602
1.55902E-6	-69.554602
1.559065E-6	-69.605859
1.55911E-6	-69.613798
1.559155E-6	-69.689957
1.5592E-6	-70.55616
1.559245E-6	-72.956779
1.55929E-6	-77.408842
1.559335E-6	-81.639925
1.55938E-6	-85.188441
1.559425E-6	-85.309147
1.55947E-6	-86.871882
1.559515E-6	-86.154674
1.55956E-6	-85.110265
1.559605E-6	-76.959405
1.55965E-6	-72.56647
1.559695E-6	-70.507076
1.55974E-6	-69.850597
1.559785E-6	-69.854795
1.55983E-6	-69.75925
1.559875E-6	-69.788107
1.55992E-6	-69.863203
1.559965E-6	-69.952488
1.56001E-6	-70.703257
1.560055E-6	-73.380927
1.5601E-6	-78.300318
1.560145E-6	-81.816421
1.56019E-6	-84.870489
1.560235E-6	-86.252517
1.56028E-6	-83.785121
1.560325E-6	-85.392525
1.56037E-6	-84.091582
1.560415E-6	-78.495506
1.56046E-6	-72.952491
1.560505E-6	-71.0122
1.56055E-6	-70.243844
1.560595E-6	-70.143041
1.56064E-6	-70.031382
1.560685E-6	-70.151578
1.56073E-6	-70.149779
1.560775E-6	-70.324988
1.56082E-6	-71.065712
1.560865E-6	-73.29105
1.56091E-6	-77.9129
1.560955E-6	-81.692189
1.561E-6	-87.126462
1.561045E-6	-86.358244
1.56109E-6	-88.096683
1.561135E-6	-87.295541
1.56118E-6	-84.9026
1.561225E-6	-78.894103
1.56127E-6	-73.364875
1.561315E-6	-71.226863
1.56136E-6	-70.453716
1.561405E-6	-70.498787
1.56145E-6	-70.443122
1.561495E-6	-70.471107
1.56154E-6	-70.475466
1.561585E-6	-70.707855
1.56163E-6	-71.332992
1.561675E-6	-73.921163
1.56172E-6	-77.796304
1.561765E-6	-81.789452
1.56181E-6	-84.592952
1.561855E-6	-84.366376
1.5619E-6	-84.133002
1.561945E-6	-85.526869
1.56199E-6	-84.812229
1.562035E-6	-81.515645
1.56208E-6	-74.35926
1.562125E-6	-71.910467
1.56217E-6	-71.11652
1.562215E-6	-70.996329
1.56226E-6	-70.936111
1.562305E-6	-71.030882
1.56235E-6	-70.418663
1.562395E-6	-71.137914
1.56244E-6	-71.650709
1.562485E-6	-73.797598
1.56253E-6	-77.228494
1.562575E-6	-81.170203
1.56262E-6	-85.31505
1.562665E-6	-85.547072
1.56271E-6	-86.9897
1.562755E-6	-86.138579
1.5628E-6	-83.95342
1.562845E-6	-80.964759
1.56289E-6	-75.171264
1.562935E-6	-72.431358
1.56298E-6	-71.481304
1.563025E-6	-71.450263
1.56307E-6	-71.258662
1.563115E-6	-71.405615
1.56316E-6	-71.507035
1.563205E-6	-71.602078
1.56325E-6	-72.109837
1.563295E-6	-73.87534
1.56334E-6	-77.87546
1.563385E-6	-81.133401
1.56343E-6	-85.223001
1.563475E-6	-88.598063
